%%%%%%%%%%%%%%%%%%%%%%%%%%%%%%%%%%%%%%%%%%%%%%%%%%%%%%%%%%%%%%%%%%%%%%%%%%%%%%%%%%%%%%%%%%%%%%%%%%%%%%%%%%%%%%%%%%%%%%%%%%%%%%%%%%%%%%%%%%%%%%%%%%%%%%%%%%%%%%%%%%%%%%%%%%%%%%%%%%%%%%%%%%%%%%%%%%%%%%%%%%%%%%%%%%%%%%%%%%%%%%%%%%%%%%%%%%%%%%%%%%%%%%%%%%%%%%%%%%%%%%%%%%%%%%%%%%%%%%%%%%%%%%%%%%%%%%%%%%%%%%%%%%%%%%%%%%%%%%%%%%%%%%%%%%%%%%%
% Original Record Key:	d053df0b-e35c-4a51-a7e2-5497e81247c8
% Original ChartItem Key:	0712d2f4-0d77-4642-88a6-c977aaee4f2a
% Original file start/end time:	12.06.2026 12:58:53	12.06.2026 13:14:54
% Exported file start/end time:	12.06.2026 12:58:54	12.06.2026 12:59:24
% Units:	mV
%%%%%%%%%%%%%%%%%%%%%%%%%%%%%%%%%%%%%%%%%%%%%%%%%%%%%%%%%%%%%%%%%%%%%%%%%%%%%%%%%%%%%%%%%%%%%%%%%%%%%%%%%%%%%%%%%%%%%%%%%%%%%%%%%%%%%%%%%%%%%%%%%%%%%%%%%%%%%%%%%%%%%%%%%%%%%%%%%%%%%%%%%%%%%%%%%%%%%%%%%%%%%%%%%%%%%%%%%%%%%%%%%%%%%%%%%%%%%%%%%%%%%%%%%%%%%%%%%%%%%%%%%%%%%%%%%%%%%%%%%%%%%%%%%%%%%%%%%%%%%%%%%%%%%%%%%%%%%%%%%%%%%%%%%%%%%%%
% Patient's Name:	qm3j8Y3iCz, jjKVN96NK5
% Sampling Rate	500 Hz
% Channels	39
% Patient ID Study ID	 Standard-EEG (Essentia)
% Date.Time	 E1/Pg1	 E2/Pg2	    Fp1	    Fp2	     T1	     F7	     F3	     Fz	     F4	     F8	     T2	     A1	     T7	     C3	     Cz	     C4	     T8	     A2	     P7	     P3	     Pz	     P4	     P8	     O1	     O2	     1A	     1A	     2A	     2A	     3A	     3A	     4A	     4A	     5A	     5A	     6A	     6A	     7A	     7A	
%%%%%%%%%%%%%%%%%%%%%%%%%%%%%%%%%%%%%%%%%%%%%%%%%%%%%%%%%%%%%%%%%%%%%%%%%%%%%%%%%%%%%%%%%%%%%%%%%%%%%%%%%%%%%%%%%%%%%%%%%%%%%%%%%%%%%%%%%%%%%%%%%%%%%%%%%%%%%%%%%%%%%%%%%%%%%%%%%%%%%%%%%%%%%%%%%%%%%%%%%%%%%%%%%%%%%%%%%%%%%%%%%%%%%%%%%%%%%%%%%%%%%%%%%%%%%%%%%%%%%%%%%%%%%%%%%%%%%%%%%%%%%%%%%%%%%%%%%%%%%%%%%%%%%%%%%%%%%%%%%%%%%%%%%%%%%%%
12.06.2026 12:58:54	-3,4528	 3,2345	 3,2010	 3,1864	 3,2557	 3,2703	-3,7689	 3,2258	-3,7068	-3,8127	-1,7717	 3,4207	-3,9375	-3,4462	 0,0000	 3,2981	-3,7280	 3,2681	-3,6251	 3,6397	 3,2681	 1,2811	 3,5871	-3,7689	 3,2455	 6,2552	-3,9864	 4,2923	 3,6550	 4,4346	-4,3186	 4,4938
12.06.2026 12:58:54	-3,4543	 3,2324	 3,1980	 3,1834	 3,2564	 3,2659	-3,7674	 3,2229	-3,7017	-3,8090	-1,7702	 3,4200	-3,9426	-3,4440	 0,0000	 3,2995	-3,7280	 3,2659	-3,6214	 3,6375	 3,2667	 1,2833	 3,5820	-3,7630	 3,2448	 6,0902	-3,9850	 4,3010	 3,6550	 4,4543	-4,3178	 4,4872
12.06.2026 12:58:54	-3,4521	 3,2229	 3,1944	 3,1776	 3,2521	 3,2623	-3,7660	 3,2192	-3,7003	-3,8076	-1,7702	 3,4170	-3,9397	-3,4411	 0,0000	 3,2988	-3,7280	 3,2601	-3,6141	 3,6346	 3,2652	 1,2833	 3,5776	-3,7601	 3,2411	 5,9990	-3,9711	 4,2813	 3,6521	 4,4324	-4,3003	 4,4741
12.06.2026 12:58:54	-3,4455	 3,2126	 3,1973	 3,1769	 3,2513	 3,2630	-3,7601	 3,2178	-3,6959	-3,8047	-1,7658	 3,4156	-3,9324	-3,4382	 0,0000	 3,2922	-3,7214	 3,2608	-3,6098	 3,6317	 3,2623	 1,2826	 3,5754	-3,7565	 3,2389	 6,0413	-3,9580	 4,2711	 3,6565	 4,4259	-4,2901	 4,4646
12.06.2026 12:58:54	-3,4426	 3,2134	 3,1966	 3,1761	 3,2499	 3,2623	-3,7550	 3,2148	-3,6922	-3,8032	-1,7687	 3,4148	-3,9317	-3,4346	 0,0000	 3,2886	-3,7149	 3,2564	-3,6134	 3,6295	 3,2579	 1,2818	 3,5718	-3,7536	 3,2360	 6,0683	-3,9463	 4,2602	 3,6660	 4,4332	-4,2872	 4,4492
12.06.2026 12:58:54	-3,4484	 3,2163	 3,1856	 3,1761	 3,2418	 3,2535	-3,7550	 3,2134	-3,6864	-3,7974	-1,7651	 3,4083	-3,9375	-3,4324	 0,0000	 3,2915	-3,7098	 3,2572	-3,6127	 3,6251	 3,2550	 1,2826	 3,5711	-3,7528	 3,2331	 6,1442	-3,9317	 4,2602	 3,6536	 4,4157	-4,2828	 4,4361
12.06.2026 12:58:54	-3,4389	 3,2075	 3,1842	 3,1725	 3,2331	 3,2499	-3,7536	 3,2112	-3,6806	-3,7952	-1,7673	 3,3988	-3,9375	-3,4302	 0,0000	 3,3032	-3,6952	 3,2470	-3,6054	 3,6200	 3,2513	 1,2855	 3,5689	-3,7521	 3,2280	 6,0245	-3,9163	 4,2551	 3,6616	 4,4098	-4,2682	 4,4354
12.06.2026 12:58:54	-3,4280	 3,2083	 3,1871	 3,1681	 3,2345	 3,2543	-3,7470	 3,2090	-3,6828	-3,7922	-1,7666	 3,3995	-3,9222	-3,4243	 0,0000	 3,2915	-3,6908	 3,2448	-3,6098	 3,6178	 3,2491	 1,2818	 3,5674	-3,7506	 3,2251	 5,9749	-3,8952	 4,2463	 3,6784	 4,3989	-4,2470	 4,4186
12.06.2026 12:58:54	-3,4243	 3,2134	 3,1842	 3,1710	 3,2324	 3,2521	-3,7419	 3,2075	-3,6769	-3,7791	-1,7520	 3,3981	-3,9200	-3,4207	 0,0000	 3,2696	-3,6908	 3,2557	-3,6032	 3,6171	 3,2455	 1,2760	 3,5681	-3,7477	 3,2236	 6,1107	-3,9017	 4,2616	 3,6696	 4,4003	-4,2375	 4,4222
12.06.2026 12:58:54	-3,4141	 3,2112	 3,1783	 3,1696	 3,2229	 3,2411	-3,7433	 3,2032	-3,6711	-3,7784	-1,7585	 3,3951	-3,9215	-3,4200	 0,0000	 3,2732	-3,6901	 3,2397	-3,5995	 3,6127	 3,2418	 1,2745	 3,5630	-3,7448	 3,2185	 6,2041	-3,9134	 4,2638	 3,6528	 4,4076	-4,2361	 4,4434
12.06.2026 12:58:54	-3,4185	 3,2046	 3,1688	 3,1630	 3,2185	 3,2287	-3,7463	 3,1988	-3,6733	-3,7806	-1,7644	 3,3922	-3,9171	-3,4192	 0,0000	 3,2725	-3,6901	 3,2345	-3,6003	 3,6083	 3,2389	 1,2738	 3,5557	-3,7419	 3,2163	 6,3289	-3,8857	 4,2631	 3,6813	 4,4018	-4,2149	 4,4565
12.06.2026 12:58:54	-3,4389	 3,1944	 3,1550	 3,1557	 3,2119	 3,2199	-3,7463	 3,1951	-3,6725	-3,7791	-1,7585	 3,3842	-3,9193	-3,4170	 0,0000	 3,2703	-3,6857	 3,2316	-3,5981	 3,6039	 3,2353	 1,2731	 3,5535	-3,7390	 3,2134	 6,2282	-3,8893	 4,2426	 3,6849	 4,3959	-4,2061	 4,4383
12.06.2026 12:58:54	-3,4608	 3,1820	 3,1448	 3,1491	 3,2032	 3,2141	-3,7433	 3,1922	-3,6725	-3,7798	-1,7571	 3,3856	-3,9120	-3,4119	 0,0000	 3,2645	-3,6820	 3,2265	-3,5900	 3,6039	 3,2331	 1,2724	 3,5535	-3,7331	 3,2112	 6,1150	-3,8798	 4,2273	 3,6747	 4,3733	-4,2047	 4,4018
12.06.2026 12:58:54	-3,4470	 3,1718	 3,1469	 3,1345	 3,2119	 3,2214	-3,7353	 3,1893	-3,6762	-3,7871	-1,7607	 3,3878	-3,8988	-3,4075	 0,0000	 3,2594	-3,6879	 3,2287	-3,5806	 3,6003	 3,2302	 1,2716	 3,5506	-3,7295	 3,2083	 6,1340	-3,8813	 4,2390	 3,6594	 4,3770	-4,2127	 4,4018
12.06.2026 12:58:54	-3,4046	 3,1645	 3,1586	 3,1236	 3,2258	 3,2397	-3,7236	 3,1871	-3,6762	-3,7908	-1,7651	 3,3849	-3,9003	-3,4039	 0,0000	 3,2579	-3,6937	 3,2258	-3,5842	 3,5966	 3,2258	 1,2709	 3,5462	-3,7287	 3,2053	 6,1172	-3,8857	 4,2295	 3,6397	 4,3908	-4,2098	 4,4011
12.06.2026 12:58:54	-3,3937	 3,1579	 3,1761	 3,1177	 3,2178	 3,2491	-3,7120	 3,1871	-3,6769	-3,7937	-1,7644	 3,3783	-3,8937	-3,3981	 0,0000	 3,2491	-3,6886	 3,2192	-3,5791	 3,5952	 3,2229	 1,2651	 3,5389	-3,7273	 3,2002	 6,2012	-3,9229	 4,2726	 3,6098	 4,4266	-4,2543	 4,4427
12.06.2026 12:58:54	-3,4141	 3,1542	 3,1776	 3,1221	 3,2090	 3,2397	-3,7098	 3,1871	-3,6725	-3,7915	-1,7687	 3,3710	-3,8915	-3,3973	 0,0000	 3,2462	-3,6798	 3,2141	-3,5806	 3,5886	 3,2178	 1,2621	 3,5331	-3,7266	 3,1944	 6,1457	-4,0120	 4,3543	 3,5280	 4,4894	-4,3427	 4,5113
12.06.2026 12:58:54	-3,4163	 3,1542	 3,1776	 3,1389	 3,2039	 3,2302	-3,7090	 3,1864	-3,6601	-3,7791	-1,7658	 3,3659	-3,9010	-3,3981	 0,0000	 3,2433	-3,6725	 3,2141	-3,5857	 3,5820	 3,2119	 1,2614	 3,5316	-3,7287	 3,1886	 6,0931	-4,0098	 4,3368	 3,5076	 4,4653	-4,3324	 4,4806
12.06.2026 12:58:54	-3,3886	 3,1623	 3,1886	 3,1469	 3,2002	 3,2309	-3,7032	 3,1878	-3,6521	-3,7711	-1,7578	 3,3623	-3,8930	-3,3937	 0,0000	 3,2411	-3,6660	 3,2017	-3,5813	 3,5791	 3,2090	 1,2607	 3,5149	-3,7273	 3,1842	 6,1917	-3,9886	 4,2981	 3,5287	 4,4354	-4,3047	 4,4463
12.06.2026 12:58:54	-3,3725	 3,1491	 3,1988	 3,1477	 3,2010	 3,2345	-3,6974	 3,1856	-3,6470	-3,7682	-1,7622	 3,3601	-3,8871	-3,3915	 0,0000	 3,2389	-3,6652	 3,1951	-3,5798	 3,5762	 3,2061	 1,2592	 3,5141	-3,7244	 3,1813	 6,2997	-3,9850	 4,2821	 3,5338	 4,4390	-4,2894	 4,4573
12.06.2026 12:58:54	-3,3740	 3,1396	 3,2039	 3,1491	 3,1988	 3,2360	-3,6922	 3,1842	-3,6433	-3,7645	-1,7563	 3,3594	-3,8820	-3,3893	 0,0000	 3,2360	-3,6630	 3,2010	-3,5769	 3,5725	 3,2017	 1,2578	 3,5222	-3,7236	 3,1783	 6,3932	-3,9565	 4,2346	 3,5492	 4,4011	-4,2507	 4,4390
12.06.2026 12:58:54	-3,3608	 3,1521	 3,2126	 3,1564	 3,2017	 3,2389	-3,6835	 3,1842	-3,6353	-3,7565	-1,7505	 3,3572	-3,8755	-3,3835	 0,0000	 3,2338	-3,6601	 3,1973	-3,5689	 3,5718	 3,1988	 1,2556	 3,5170	-3,7193	 3,1732	 6,2282	-3,9280	 4,1967	 3,5747	 4,3587	-4,2207	 4,3938
12.06.2026 12:58:54	-3,3659	 3,1469	 3,2170	 3,1623	 3,1944	 3,2375	-3,6784	 3,1827	-3,6280	-3,7528	-1,7534	 3,3535	-3,8820	-3,3813	 0,0000	 3,2338	-3,6587	 3,1900	-3,5645	 3,5689	 3,1966	 1,2541	 3,5017	-3,7156	 3,1696	 6,0523	-3,9200	 4,1835	 3,5747	 4,3434	-4,2061	 4,3726
12.06.2026 12:58:54	-3,3667	 3,1382	 3,2272	 3,1594	 3,1951	 3,2433	-3,6703	 3,1813	-3,6273	-3,7550	-1,7527	 3,3506	-3,8725	-3,3776	 0,0000	 3,2324	-3,6536	 3,1871	-3,5594	 3,5630	 3,1915	 1,2548	 3,4951	-3,7156	 3,1667	 5,9909	-3,9061	 4,1594	 3,5900	 4,3222	-4,1967	 4,3456
12.06.2026 12:58:54	-3,3521	 3,1323	 3,2382	 3,1521	 3,1951	 3,2470	-3,6601	 3,1805	-3,6273	-3,7587	-1,7571	 3,3484	-3,8616	-3,3718	 0,0000	 3,2229	-3,6587	 3,1820	-3,5601	 3,5587	 3,1871	 1,2475	 3,5039	-3,7141	 3,1623	 6,0026	-3,8769	 4,1477	 3,6185	 4,3076	-4,1908	 4,3208
12.06.2026 12:58:54	-3,3477	 3,1280	 3,2360	 3,1535	 3,1878	 3,2470	-3,6579	 3,1798	-3,6229	-3,7587	-1,7571	 3,3440	-3,8631	-3,3710	 0,0000	 3,2214	-3,6594	 3,1827	-3,5616	 3,5565	 3,1842	 1,2475	 3,5032	-3,7112	 3,1594	 6,1829	-3,8514	 4,1755	 3,6192	 4,3054	-4,1915	 4,3383
12.06.2026 12:58:54	-3,3404	 3,1221	 3,2426	 3,1579	 3,1878	 3,2426	-3,6484	 3,1783	-3,6185	-3,7565	-1,7607	 3,3382	-3,8631	-3,3674	 0,0000	 3,2199	-3,6652	 3,1725	-3,5565	 3,5528	 3,1813	 1,2483	 3,4900	-3,7098	 3,1550	 6,1362	-3,8550	 4,1915	 3,6214	 4,3018	-4,1828	 4,3390
12.06.2026 12:58:54	-3,3462	 3,1126	 3,2455	 3,1586	 3,1761	 3,2316	-3,6448	 3,1769	-3,6156	-3,7543	-1,7614	 3,3316	-3,8740	-3,3623	 0,0000	 3,2163	-3,6689	 3,1586	-3,5565	 3,5484	 3,1783	 1,2461	 3,4769	-3,7083	 3,1506	 6,1077	-3,8506	 4,1733	 3,6324	 4,2872	-4,1507	 4,3149
12.06.2026 12:58:54	-3,3484	 3,1141	 3,2513	 3,1652	 3,1725	 3,2367	-3,6477	 3,1747	-3,6098	-3,7470	-1,7498	 3,3280	-3,8689	-3,3608	 0,0000	 3,2156	-3,6689	 3,1667	-3,5557	 3,5470	 3,1761	 1,2468	 3,4842	-3,7054	 3,1491	 6,2632	-3,8514	 4,1842	 3,6163	 4,2967	-4,1514	 4,3251
12.06.2026 12:58:54	-3,3499	 3,1141	 3,2579	 3,1696	 3,1703	 3,2331	-3,6419	 3,1732	-3,6039	-3,7426	-1,7439	 3,3265	-3,8543	-3,3594	 0,0000	 3,2134	-3,6638	 3,1645	-3,5543	 3,5448	 3,1732	 1,2461	 3,4813	-3,7025	 3,1477	 6,3932	-3,8747	 4,2076	 3,5944	 4,3120	-4,1631	 4,3631
12.06.2026 12:58:54	-3,3521	 3,1141	 3,2637	 3,1718	 3,1645	 3,2294	-3,6353	 3,1710	-3,5995	-3,7375	-1,7454	 3,3192	-3,8506	-3,3543	 0,0000	 3,2112	-3,6404	 3,1594	-3,5477	 3,5419	 3,1710	 1,2453	 3,4776	-3,6988	 3,1462	 6,4917	-3,8777	 4,2186	 3,5674	 4,3178	-4,1733	 4,3974
12.06.2026 12:58:54	-3,3440	 3,1090	 3,2776	 3,1725	 3,1630	 3,2338	-3,6280	 3,1703	-3,5981	-3,7382	-1,7483	 3,3200	-3,8412	-3,3506	 0,0000	 3,2032	-3,6353	 3,1550	-3,5462	 3,5382	 3,1688	 1,2432	 3,4784	-3,6930	 3,1440	 6,3114	-3,8915	 4,2142	 3,5404	 4,3259	-4,2018	 4,3952
12.06.2026 12:58:54	-3,3338	 3,1024	 3,2849	 3,1718	 3,1594	 3,2353	-3,6207	 3,1688	-3,5966	-3,7419	-1,7476	 3,3192	-3,8331	-3,3462	 0,0000	 3,1988	-3,6390	 3,1528	-3,5360	 3,5375	 3,1659	 1,2424	 3,4711	-3,6893	 3,1396	 6,1348	-3,9076	 4,1945	 3,5411	 4,3142	-4,2054	 4,3835
12.06.2026 12:58:54	-3,3170	 3,0842	 3,2922	 3,1776	 3,1667	 3,2382	-3,6134	 3,1667	-3,5915	-3,7404	-1,7541	 3,3178	-3,8375	-3,3426	 0,0000	 3,2002	-3,6287	 3,1506	-3,5295	 3,5346	 3,1637	 1,2424	 3,4674	-3,6857	 3,1382	 6,1318	-3,8857	 4,1835	 3,5419	 4,3032	-4,1937	 4,3799
12.06.2026 12:58:54	-3,3039	 3,0725	 3,3024	 3,1813	 3,1696	 3,2448	-3,6046	 3,1674	-3,5886	-3,7390	-1,7549	 3,3163	-3,8331	-3,3382	 0,0000	 3,1944	-3,6295	 3,1448	-3,5258	 3,5324	 3,1608	 1,2410	 3,4535	-3,6842	 3,1331	 6,1282	-3,8601	 4,1733	 3,5397	 4,2967	-4,1704	 4,3594
12.06.2026 12:58:54	-3,2878	 3,0769	 3,3221	 3,1878	 3,1681	 3,2513	-3,5937	 3,1681	-3,5827	-3,7353	-1,7505	 3,3097	-3,8222	-3,3331	 0,0000	 3,1871	-3,6331	 3,1338	-3,5273	 3,5287	 3,1557	 1,2373	 3,4433	-3,6842	 3,1265	 6,1720	-3,8623	 4,1769	 3,5236	 4,2937	-4,1594	 4,3609
12.06.2026 12:58:54	-3,2813	 3,0688	 3,3214	 3,1871	 3,1601	 3,2477	-3,5915	 3,1645	-3,5806	-3,7339	-1,7534	 3,3046	-3,8163	-3,3302	 0,0000	 3,1856	-3,6258	 3,1353	-3,5251	 3,5258	 3,1550	 1,2359	 3,4528	-3,6820	 3,1236	 6,0479	-3,8463	 4,1733	 3,5258	 4,2864	-4,1492	 4,3580
12.06.2026 12:58:54	-3,2951	 3,0696	 3,3200	 3,1834	 3,1572	 3,2440	-3,5900	 3,1623	-3,5798	-3,7309	-1,7512	 3,3032	-3,8207	-3,3294	 0,0000	 3,1805	-3,6280	 3,1323	-3,5258	 3,5214	 3,1513	 1,2337	 3,4513	-3,6806	 3,1207	 5,9165	-3,8287	 4,1726	 3,5280	 4,2894	-4,1492	 4,3521
12.06.2026 12:58:54	-3,3083	 3,0586	 3,3353	 3,1878	 3,1542	 3,2433	-3,5835	 3,1608	-3,5762	-3,7331	-1,7585	 3,2959	-3,8163	-3,3243	 0,0000	 3,1732	-3,6324	 3,1207	-3,5287	 3,5200	 3,1484	 1,2307	 3,4426	-3,6776	 3,1177	 6,0428	-3,8163	 4,1689	 3,5353	 4,2799	-4,1543	 4,3507
12.06.2026 12:58:54	-3,2959	 3,0520	 3,3375	 3,1834	 3,1469	 3,2455	-3,5784	 3,1579	-3,5762	-3,7346	-1,7520	 3,2922	-3,8090	-3,3200	 0,0000	 3,1710	-3,6273	 3,1265	-3,5156	 3,5222	 3,1462	 1,2307	 3,4404	-3,6711	 3,1148	 6,2231	-3,7937	 4,1645	 3,5506	 4,2609	-4,1536	 4,3536
12.06.2026 12:58:54	-3,2769	 3,0477	 3,3462	 3,1878	 3,1513	 3,2470	-3,5711	 3,1557	-3,5725	-3,7331	-1,7549	 3,2995	-3,8112	-3,3192	 0,0000	 3,1703	-3,6251	 3,1207	-3,5134	 3,5134	 3,1426	 1,2307	 3,4389	-3,6689	 3,1148	 6,3224	-3,7849	 4,1762	 3,5419	 4,2521	-4,1419	 4,3536
12.06.2026 12:58:54	-3,2769	 3,0301	 3,3586	 3,1980	 3,1469	 3,2455	-3,5652	 3,1557	-3,5681	-3,7353	-1,7607	 3,2944	-3,8090	-3,3170	 0,0000	 3,1674	-3,6178	 3,1141	-3,5134	 3,5097	 3,1404	 1,2300	 3,4331	-3,6660	 3,1112	 6,1647	-3,7915	 4,1594	 3,5331	 4,2324	-4,1295	 4,3164
12.06.2026 12:58:54	-3,2754	 3,0345	 3,3630	 3,1944	 3,1477	 3,2440	-3,5616	 3,1528	-3,5667	-3,7317	-1,7498	 3,2908	-3,8127	-3,3127	 0,0000	 3,1637	-3,6163	 3,1141	-3,5141	 3,5097	 3,1396	 1,2300	 3,4324	-3,6601	 3,1104	 6,0253	-3,8061	 4,1806	 3,5141	 4,2361	-4,1317	 4,3142
12.06.2026 12:58:54	-3,2762	 3,0301	 3,3667	 3,1886	 3,1469	 3,2455	-3,5587	 3,1499	-3,5660	-3,7309	-1,7549	 3,2842	-3,8076	-3,3061	 0,0000	 3,1586	-3,6214	 3,1119	-3,4995	 3,5083	 3,1375	 1,2271	 3,4331	-3,6557	 3,1068	 6,0318	-3,8090	 4,2003	 3,5090	 4,2499	-4,1091	 4,3222
12.06.2026 12:58:54	-3,2725	 3,0155	 3,3776	 3,1929	 3,1440	 3,2477	-3,5499	 3,1484	-3,5652	-3,7353	-1,7571	 3,2805	-3,7959	-3,3039	 0,0000	 3,1557	-3,6244	 3,1053	-3,5003	 3,5039	 3,1338	 1,2286	 3,4148	-3,6550	 3,1017	 6,0099	-3,8163	 4,2259	 3,4981	 4,2791	-4,1120	 4,3237
12.06.2026 12:58:54	-3,2616	 3,0082	 3,3835	 3,1944	 3,1396	 3,2455	-3,5441	 3,1469	-3,5630	-3,7368	-1,7578	 3,2805	-3,7908	-3,3024	 0,0000	 3,1513	-3,6207	 3,0966	-3,5061	 3,4995	 3,1287	 1,2256	 3,4141	-3,6528	 3,1002	 6,0552	-3,7463	 4,1748	 3,5484	 4,2186	-4,0623	 4,2551
12.06.2026 12:58:54	-3,2543	 3,0046	 3,3988	 3,1951	 3,1345	 3,2484	-3,5375	 3,1455	-3,5601	-3,7390	-1,7614	 3,2740	-3,7769	-3,2959	 0,0000	 3,1484	-3,6192	 3,0871	-3,4951	 3,4988	 3,1250	 1,2213	 3,4032	-3,6499	 3,0944	 5,9391	-3,6930	 4,0886	 3,5944	 4,1550	-4,0185	 4,1748
12.06.2026 12:58:54	-3,2616	 3,0002	 3,4017	 3,2002	 3,1338	 3,2433	-3,5338	 3,1433	-3,5572	-3,7346	-1,7607	 3,2732	-3,7813	-3,2959	 0,0000	 3,1477	-3,6119	 3,0885	-3,5010	 3,4930	 3,1214	 1,2227	 3,3959	-3,6492	 3,0900	 5,8749	-3,7565	 4,1273	 3,5441	 4,2061	-4,0653	 4,2032
12.06.2026 12:58:54	-3,2499	 2,9922	 3,4127	 3,2017	 3,1323	 3,2477	-3,5258	 3,1440	-3,5528	-3,7287	-1,7585	 3,2681	-3,7820	-3,2922	 0,0000	 3,1367	-3,6076	 3,0907	-3,4981	 3,4893	 3,1177	 1,2154	 3,4112	-3,6492	 3,0849	 6,0004	-3,7703	 4,1390	 3,5273	 4,2193	-4,0733	 4,2134
12.06.2026 12:58:54	-3,2287	 2,9922	 3,4346	 3,2010	 3,1302	 3,2579	-3,5134	 3,1433	-3,5506	-3,7266	-1,7563	 3,2645	-3,7696	-3,2849	 0,0000	 3,1316	-3,6185	 3,0805	-3,4937	 3,4922	 3,1148	 1,2132	 3,4010	-3,6433	 3,0812	 6,1377	-3,7536	 4,1507	 3,5404	 4,2207	-4,0572	 4,2237
12.06.2026 12:58:54	-3,2287	 2,9776	 3,4367	 3,2083	 3,1309	 3,2550	-3,5090	 3,1404	-3,5462	-3,7273	-1,7578	 3,2659	-3,7747	-3,2813	 0,0000	 3,1331	-3,6178	 3,0791	-3,4827	 3,4893	 3,1119	 1,2154	 3,3973	-3,6375	 3,0798	 6,2362	-3,7609	 4,1689	 3,5448	 4,2193	-4,0499	 4,2324
12.06.2026 12:58:54	-3,2287	 2,9615	 3,4448	 3,2185	 3,1272	 3,2499	-3,5039	 3,1404	-3,5411	-3,7302	-1,7607	 3,2594	-3,7784	-3,2783	 0,0000	 3,1294	-3,6163	 3,0761	-3,4703	 3,4842	 3,1090	 1,2118	 3,3944	-3,6368	 3,0739	 6,0639	-3,7660	 4,1536	 3,5419	 4,2105	-4,0602	 4,2229
12.06.2026 12:58:54	-3,2411	 2,9637	 3,4411	 3,2148	 3,1163	 3,2411	-3,5017	 3,1375	-3,5404	-3,7295	-1,7600	 3,2557	-3,7740	-3,2754	 0,0000	 3,1243	-3,6141	 3,0718	-3,4820	 3,4820	 3,1075	 1,2074	 3,3937	-3,6317	 3,0703	 5,8931	-3,7660	 4,1558	 3,5331	 4,2113	-4,0711	 4,2397
12.06.2026 12:58:54	-3,2455	 2,9645	 3,4448	 3,2112	 3,1170	 3,2404	-3,4981	 3,1331	-3,5375	-3,7266	-1,7578	 3,2557	-3,7747	-3,2732	 0,0000	 3,1221	-3,6032	 3,0688	-3,4842	 3,4762	 3,1053	 1,2103	 3,3908	-3,6273	 3,0703	 5,8223	-3,7718	 4,1645	 3,5178	 4,2288	-4,0733	 4,2521
12.06.2026 12:58:54	-3,2353	 2,9593	 3,4616	 3,2170	 3,1141	 3,2455	-3,4908	 3,1338	-3,5324	-3,7258	-1,7629	 3,2535	-3,7711	-3,2696	 0,0000	 3,1214	-3,5995	 3,0608	-3,4689	 3,4740	 3,1010	 1,2110	 3,3813	-3,6258	 3,0666	 5,8012	-3,7813	 4,1777	 3,5046	 4,2463	-4,0806	 4,2565
12.06.2026 12:58:54	-3,2367	 2,9520	 3,4725	 3,2243	 3,1053	 3,2455	-3,4842	 3,1331	-3,5265	-3,7229	-1,7600	 3,2491	-3,7579	-3,2659	 0,0000	 3,1170	-3,6025	 3,0593	-3,4718	 3,4711	 3,0973	 1,2081	 3,3616	-3,6236	 3,0637	 5,8763	-3,7550	 4,1806	 3,5229	 4,2273	-4,0733	 4,2529
12.06.2026 12:58:54	-3,2258	 2,9433	 3,4842	 3,2265	 3,1002	 3,2440	-3,4762	 3,1323	-3,5236	-3,7207	-1,7541	 3,2404	-3,7536	-3,2594	 0,0000	 3,1126	-3,5871	 3,0593	-3,4703	 3,4689	 3,0937	 1,2081	 3,3462	-3,6229	 3,0586	 5,7471	-3,7375	 4,1536	 3,5353	 4,2120	-4,0631	 4,2383
12.06.2026 12:58:54	-3,2258	 2,9345	 3,4878	 3,2294	 3,1010	 3,2404	-3,4718	 3,1331	-3,5192	-3,7193	-1,7571	 3,2353	-3,7660	-3,2557	 0,0000	 3,1046	-3,5849	 3,0484	-3,4681	 3,4659	 3,0893	 1,1994	 3,3703	-3,6222	 3,0520	 5,7209	-3,7382	 4,1237	 3,5353	 4,1908	-4,0507	 4,2040
12.06.2026 12:58:54	-3,2214	 2,9258	 3,4922	 3,2265	 3,1010	 3,2418	-3,4645	 3,1294	-3,5170	-3,7193	-1,7607	 3,2302	-3,7630	-3,2535	 0,0000	 3,0995	-3,5966	 3,0455	-3,4769	 3,4586	 3,0842	 1,1972	 3,3732	-3,6236	 3,0469	 5,8961	-3,7266	 4,1134	 3,5514	 4,1748	-4,0419	 4,1915
12.06.2026 12:58:54	-3,2126	 2,9236	 3,5039	 3,2302	 3,1002	 3,2448	-3,4565	 3,1287	-3,5112	-3,7156	-1,7607	 3,2345	-3,7492	-3,2513	 0,0000	 3,1039	-3,5835	 3,0499	-3,4674	 3,4543	 3,0812	 1,2045	 3,3543	-3,6200	 3,0491	 6,0435	-3,7222	 4,1200	 3,5601	 4,1799	-4,0434	 4,2134
12.06.2026 12:58:54	-3,2221	 2,9199	 3,5119	 3,2375	 3,0937	 3,2397	-3,4550	 3,1280	-3,5054	-3,7120	-1,7549	 3,2309	-3,7397	-3,2543	 0,0000	 3,1053	-3,5886	 3,0360	-3,4674	 3,4470	 3,0776	 1,2074	 3,3389	-3,6185	 3,0447	 6,1070	-3,7200	 4,1222	 3,5667	 4,1748	-4,0346	 4,2339
12.06.2026 12:58:54	-3,2141	 2,9163	 3,5214	 3,2382	 3,0893	 3,2418	-3,4492	 3,1258	-3,5024	-3,7098	-1,7447	 3,2236	-3,7324	-3,2506	 0,0000	 3,0988	-3,5893	 3,0455	-3,4579	 3,4470	 3,0754	 1,2008	 3,3419	-3,6149	 3,0389	 5,8902	-3,7244	 4,1047	 3,5652	 4,1602	-4,0156	 4,2156
12.06.2026 12:58:54	-3,2112	 2,9068	 3,5331	 3,2448	 3,0885	 3,2418	-3,4404	 3,1265	-3,4959	-3,7098	-1,7505	 3,2170	-3,7397	-3,2470	 0,0000	 3,0915	-3,5776	 3,0418	-3,4594	 3,4404	 3,0710	 1,1957	 3,3543	-3,6134	 3,0360	 5,7457	-3,7185	 4,0901	 3,5703	 4,1572	-4,0047	 4,1952
12.06.2026 12:58:54	-3,2046	 2,8980	 3,5375	 3,2440	 3,0864	 3,2440	-3,4324	 3,1236	-3,4966	-3,7112	-1,7585	 3,2156	-3,7411	-3,2433	 0,0000	 3,0900	-3,5988	 3,0199	-3,4543	 3,4382	 3,0681	 1,1957	 3,3419	-3,6105	 3,0323	 5,7479	-3,7083	 4,0784	 3,5703	 4,1477	-4,0215	 4,1704
12.06.2026 12:58:54	-3,1951	 2,8936	 3,5382	 3,2426	 3,0827	 3,2426	-3,4302	 3,1214	-3,4937	-3,7127	-1,7600	 3,2170	-3,7375	-3,2404	 0,0000	 3,0900	-3,6025	 3,0243	-3,4477	 3,4375	 3,0652	 1,1906	 3,3411	-3,6061	 3,0287	 5,7063	-3,7003	 4,0550	 3,5608	 4,1310	-4,0200	 4,1288
12.06.2026 12:58:54	-3,1900	 2,8900	 3,5462	 3,2411	 3,0820	 3,2411	-3,4243	 3,1192	-3,4915	-3,7105	-1,7563	 3,2119	-3,7331	-3,2411	 0,0000	 3,0856	-3,5733	 3,0250	-3,4667	 3,4251	 3,0601	 1,1913	 3,3367	-3,6076	 3,0265	 5,7632	-3,6988	 4,0310	 3,5696	 4,1091	-4,0018	 4,1171
12.06.2026 12:58:54	-3,1864	 2,8754	 3,5514	 3,2411	 3,0812	 3,2455	-3,4192	 3,1170	-3,4886	-3,7076	-1,7578	 3,2112	-3,7302	-3,2353	 0,0000	 3,0812	-3,5601	 3,0199	-3,4513	 3,4258	 3,0586	 1,1906	 3,3389	-3,6010	 3,0258	 5,7347	-3,6995	 4,0419	 3,5623	 4,1018	-3,9937	 4,1215
12.06.2026 12:58:54	-3,1886	 2,8637	 3,5543	 3,2440	 3,0791	 3,2411	-3,4148	 3,1177	-3,4849	-3,7083	-1,7571	 3,2090	-3,7266	-3,2309	 0,0000	 3,0769	-3,5638	 3,0185	-3,4506	 3,4251	 3,0572	 1,1891	 3,3433	-3,5988	 3,0243	 5,6668	-3,6952	 4,0616	 3,5514	 4,1105	-3,9813	 4,1397
12.06.2026 12:58:54	-3,1849	 2,8615	 3,5557	 3,2375	 3,0718	 3,2389	-3,4105	 3,1134	-3,4849	-3,7054	-1,7490	 3,2046	-3,7222	-3,2258	 0,0000	 3,0725	-3,5499	 3,0119	-3,4535	 3,4229	 3,0542	 1,1884	 3,3061	-3,5973	 3,0170	 5,7617	-3,6806	 4,0448	 3,5587	 4,0988	-3,9609	 4,1339
12.06.2026 12:58:54	-3,1725	 2,8579	 3,5645	 3,2389	 3,0637	 3,2397	-3,4061	 3,1104	-3,4798	-3,7039	-1,7614	 3,1915	-3,7360	-3,2207	 0,0000	 3,0696	-3,5514	 3,0039	-3,4353	 3,4229	 3,0520	 1,1891	 3,3243	-3,5952	 3,0148	 5,9004	-3,6601	 4,0558	 3,5565	 4,1018	-3,9507	 4,1499
12.06.2026 12:58:54	-3,1667	 2,8659	 3,5703	 3,2418	 3,0659	 3,2404	-3,4010	 3,1090	-3,4762	-3,7017	-1,7549	 3,1951	-3,7484	-3,2207	 0,0000	 3,0652	-3,5638	 3,0119	-3,4572	 3,4127	 3,0469	 1,1906	 3,3455	-3,5944	 3,0170	 5,9150	-3,6820	 4,0711	 3,5346	 4,1105	-3,9828	 4,1696
12.06.2026 12:58:54	-3,1791	 2,8542	 3,5652	 3,2360	 3,0586	 3,2360	-3,3973	 3,1053	-3,4769	-3,7025	-1,7541	 3,1893	-3,7244	-3,2185	 0,0000	 3,0637	-3,5535	 3,0068	-3,4455	 3,4112	 3,0447	 1,1899	 3,3221	-3,5900	 3,0119	 5,7106	-3,6974	 4,0609	 3,5214	 4,1010	-4,0010	 4,1441
12.06.2026 12:58:54	-3,1761	 2,8513	 3,5616	 3,2309	 3,0593	 3,2280	-3,3922	 3,1031	-3,4747	-3,7017	-1,7534	 3,1842	-3,7054	-3,2148	 0,0000	 3,0623	-3,5579	 3,0002	-3,4243	 3,4090	 3,0418	 1,1862	 3,3214	-3,5871	 3,0053	 5,5617	-3,6820	 4,0529	 3,5112	 4,0937	-3,9952	 4,1339
12.06.2026 12:58:54	-3,1637	 2,8513	 3,5652	 3,2324	 3,0615	 3,2353	-3,3929	 3,1024	-3,4696	-3,7003	-1,7468	 3,1871	-3,7039	-3,2134	 0,0000	 3,0601	-3,5630	 2,9966	-3,4243	 3,4046	 3,0382	 1,1840	 3,3148	-3,5835	 3,0024	 5,5281	-3,6966	 4,0638	 3,4951	 4,1069	-4,0222	 4,1375
12.06.2026 12:58:54	-3,1477	 2,8404	 3,5776	 3,2367	 3,0645	 3,2455	-3,3849	 3,1010	-3,4645	-3,6974	-1,7534	 3,1864	-3,6944	-3,2112	 0,0000	 3,0601	-3,5492	 2,9929	-3,4163	 3,4039	 3,0367	 1,1848	 3,3039	-3,5791	 3,0009	 5,5201	-3,7149	 4,0704	 3,4784	 4,1134	-4,0273	 4,1302
12.06.2026 12:58:54	-3,1353	 2,8206	 3,5762	 3,2324	 3,0593	 3,2404	-3,3769	 3,0988	-3,4674	-3,7017	-1,7520	 3,1834	-3,6930	-3,2053	 0,0000	 3,0499	-3,5535	 2,9915	-3,4294	 3,3959	 3,0323	 1,1840	 3,3083	-3,5806	 2,9980	 5,5844	-3,7003	 4,0521	 3,4951	 4,0952	-3,9996	 4,1302
12.06.2026 12:58:54	-3,1484	 2,8068	 3,5550	 3,2178	 3,0462	 3,2236	-3,3842	 3,0922	-3,4703	-3,7032	-1,7556	 3,1703	-3,7003	-3,2017	 0,0000	 3,0455	-3,5572	 2,9834	-3,4294	 3,3937	 3,0316	 1,1833	 3,3105	-3,5784	 2,9951	 5,5559	-3,6798	 4,0638	 3,5068	 4,0981	-3,9820	 4,1397
12.06.2026 12:58:54	-3,1572	 2,8119	 3,5411	 3,2090	 3,0411	 3,2170	-3,3842	 3,0878	-3,4652	-3,6981	-1,7490	 3,1718	-3,6974	-3,2017	 0,0000	 3,0462	-3,5535	 2,9834	-3,4280	 3,3922	 3,0301	 1,1804	 3,3032	-3,5733	 2,9900	 5,5230	-3,6755	 4,0631	 3,4864	 4,0945	-3,9682	 4,1310
12.06.2026 12:58:54	-3,1521	 2,8053	 3,5433	 3,2010	 3,0367	 3,2229	-3,3769	 3,0849	-3,4659	-3,7032	-1,7520	 3,1659	-3,6871	-3,1966	 0,0000	 3,0396	-3,5462	 2,9688	-3,4221	 3,3915	 3,0258	 1,1804	 3,2951	-3,5725	 2,9856	 5,6500	-3,6660	 4,0310	 3,4762	 4,0762	-3,9674	 4,1310
12.06.2026 12:58:54	-3,1353	 2,8060	 3,5565	 3,2083	 3,0433	 3,2309	-3,3674	 3,0842	-3,4572	-3,6944	-1,7541	 3,1623	-3,6798	-3,1929	 0,0000	 3,0353	-3,5360	 2,9637	-3,4236	 3,3900	 3,0221	 1,1767	 3,2886	-3,5696	 2,9812	 5,7800	-3,6601	 4,0185	 3,4638	 4,0733	-3,9609	 4,1477
12.06.2026 12:58:54	-3,1258	 2,8119	 3,5565	 3,2141	 3,0447	 3,2324	-3,3616	 3,0849	-3,4521	-3,6864	-1,7439	 3,1674	-3,6696	-3,1878	 0,0000	 3,0323	-3,5353	 2,9710	-3,4054	 3,3878	 3,0199	 1,1753	 3,2886	-3,5660	 2,9798	 5,8245	-3,6506	 4,0164	 3,4652	 4,0587	-3,9412	 4,1448
12.06.2026 12:58:54	-3,1236	 2,8068	 3,5492	 3,2075	 3,0447	 3,2243	-3,3601	 3,0820	-3,4521	-3,6849	-1,7381	 3,1696	-3,6755	-3,1871	 0,0000	 3,0367	-3,5280	 2,9769	-3,3995	 3,3805	 3,0177	 1,1789	 3,2915	-3,5616	 2,9805	 5,6552	-3,6448	 4,0105	 3,4645	 4,0280	-3,9346	 4,1280
12.06.2026 12:58:54	-3,1061	 2,8068	 3,5514	 3,2061	 3,0477	 3,2265	-3,3535	 3,0805	-3,4462	-3,6813	-1,7359	 3,1696	-3,6747	-3,1856	 0,0000	 3,0338	-3,5229	 2,9674	-3,4032	 3,3747	 3,0148	 1,1760	 3,2849	-3,5565	 2,9761	 5,4544	-3,6514	 4,0025	 3,4645	 4,0171	-3,9339	 4,1193
12.06.2026 12:58:54	-3,0915	 2,8068	 3,5499	 3,1929	 3,0535	 3,2331	-3,3477	 3,0769	-3,4470	-3,6798	-1,7352	 3,1688	-3,6703	-3,1798	 0,0000	 3,0272	-3,5127	 2,9637	-3,3944	 3,3769	 3,0134	 1,1738	 3,2827	-3,5514	 2,9739	 5,3756	-3,6360	 4,0025	 3,4711	 4,0237	-3,9149	 4,1171
12.06.2026 12:58:54	-3,0907	 2,8046	 3,5441	 3,1871	 3,0455	 3,2309	-3,3433	 3,0754	-3,4426	-3,6762	-1,7344	 3,1601	-3,6798	-3,1747	 0,0000	 3,0250	-3,5046	 2,9703	-3,3973	 3,3754	 3,0104	 1,1723	 3,2878	-3,5506	 2,9710	 5,3858	-3,6236	 4,0083	 3,4477	 4,0273	-3,9142	 4,1127
12.06.2026 12:58:54	-3,0864	 2,7958	 3,5382	 3,1856	 3,0411	 3,2331	-3,3367	 3,0739	-3,4404	-3,6769	-1,7344	 3,1601	-3,6755	-3,1710	 0,0000	 3,0170	-3,5185	 2,9615	-3,3871	 3,3740	 3,0082	 1,1702	 3,2798	-3,5448	 2,9696	 5,5486	-3,6105	 4,0105	 3,4433	 4,0302	-3,9090	 4,1127
12.06.2026 12:58:54	-3,0776	 2,7834	 3,5324	 3,1791	 3,0491	 3,2338	-3,3346	 3,0696	-3,4411	-3,6798	-1,7352	 3,1674	-3,6557	-3,1674	 0,0000	 3,0134	-3,5185	 2,9593	-3,3725	 3,3732	 3,0075	 1,1723	 3,2710	-3,5360	 2,9703	 5,3865	-3,6054	 4,0112	 3,4543	 4,0310	-3,8908	 4,1142
12.06.2026 12:58:54	-3,0878	 2,7761	 3,5163	 3,1681	 3,0323	 3,2185	-3,3389	 3,0659	-3,4397	-3,6798	-1,7330	 3,1521	-3,6484	-3,1652	 0,0000	 3,0163	-3,5090	 2,9579	-3,3805	 3,3710	 3,0053	 1,1775	 3,2579	-3,5353	 2,9681	 5,2653	-3,6083	 4,0032	 3,4455	 4,0266	-3,8981	 4,1003
12.06.2026 12:58:54	-3,1046	 2,7739	 3,4930	 3,1491	 3,0207	 3,2039	-3,3433	 3,0593	-3,4426	-3,6798	-1,7293	 3,1440	-3,6484	-3,1623	 0,0000	 3,0112	-3,5068	 2,9572	-3,3835	 3,3696	 3,0039	 1,1738	 3,2689	-3,5324	 2,9652	 5,4259	-3,6068	 3,9850	 3,4455	 4,0178	-3,9047	 4,0769
12.06.2026 12:58:54	-3,0973	 2,7754	 3,4922	 3,1433	 3,0236	 3,2053	-3,3382	 3,0564	-3,4419	-3,6762	-1,7286	 3,1491	-3,6470	-3,1623	 0,0000	 3,0068	-3,5061	 2,9586	-3,3849	 3,3601	 2,9988	 1,1680	 3,2776	-3,5309	 2,9623	 5,5281	-3,6105	 3,9733	 3,4389	 4,0178	-3,9061	 4,0857
12.06.2026 12:58:54	-3,0739	 2,7717	 3,4995	 3,1367	 3,0250	 3,2156	-3,3287	 3,0542	-3,4411	-3,6740	-1,7308	 3,1477	-3,6411	-3,1564	 0,0000	 3,0039	-3,5032	 2,9564	-3,3710	 3,3594	 2,9951	 1,1702	 3,2579	-3,5280	 2,9608	 5,5887	-3,6025	 3,9769	 3,4623	 4,0054	-3,8842	 4,0857
12.06.2026 12:58:54	-3,0623	 2,7688	 3,5003	 3,1338	 3,0287	 3,2185	-3,3236	 3,0520	-3,4382	-3,6711	-1,7271	 3,1448	-3,6331	-3,1491	 0,0000	 3,0031	-3,5068	 2,9469	-3,3528	 3,3616	 2,9929	 1,1665	 3,2594	-3,5222	 2,9557	 5,4661	-3,5981	 3,9660	 3,4798	 4,0003	-3,8689	 4,0645
12.06.2026 12:58:54	-3,0688	 2,7630	 3,4900	 3,1287	 3,0185	 3,2090	-3,3251	 3,0491	-3,4367	-3,6718	-1,7257	 3,1418	-3,6411	-3,1513	 0,0000	 3,0039	-3,5258	 2,9520	-3,3754	 3,3543	 2,9900	 1,1643	 3,2674	-3,5185	 2,9542	 5,3026	-3,5995	 3,9455	 3,4696	 3,9828	-3,8565	 4,0580
12.06.2026 12:58:54	-3,0645	 2,7535	 3,4725	 3,1104	 3,0163	 3,2017	-3,3243	 3,0411	-3,4419	-3,6791	-1,7308	 3,1382	-3,6382	-3,1484	 0,0000	 2,9929	-3,5192	 2,9484	-3,3550	 3,3579	 2,9885	 1,1650	 3,2601	-3,5105	 2,9535	 5,1894	-3,5827	 3,9404	 3,4703	 3,9769	-3,8470	 4,0477
12.06.2026 12:58:54	-3,0520	 2,7520	 3,4703	 3,1053	 3,0199	 3,2053	-3,3185	 3,0389	-3,4375	-3,6725	-1,7271	 3,1331	-3,6419	-3,1462	 0,0000	 2,9849	-3,4944	 2,9345	-3,3521	 3,3506	 2,9849	 1,1636	 3,2535	-3,5112	 2,9469	 5,1858	-3,5900	 3,9660	 3,4550	 4,0054	-3,8667	 4,0456
12.06.2026 12:58:54	-3,0499	 2,7462	 3,4667	 3,0995	 3,0170	 3,2075	-3,3119	 3,0367	-3,4360	-3,6689	-1,7271	 3,1367	-3,6433	-3,1426	 0,0000	 2,9820	-3,4922	 2,9367	-3,3601	 3,3455	 2,9842	 1,1643	 3,2521	-3,5076	 2,9462	 5,2785	-3,6083	 3,9835	 3,4513	 4,0025	-3,8704	 4,0507
12.06.2026 12:58:54	-3,0484	 2,7338	 3,4586	 3,0893	 3,0090	 3,1959	-3,3090	 3,0323	-3,4419	-3,6762	-1,7322	 3,1287	-3,6295	-3,1396	 0,0000	 2,9769	-3,4930	 2,9301	-3,3521	 3,3462	 2,9812	 1,1629	 3,2455	-3,5039	 2,9440	 5,1632	-3,6791	 4,0558	 3,3710	 4,0689	-3,9441	 4,1273
12.06.2026 12:58:54	-3,0637	 2,7257	 3,4338	 3,0725	 2,9929	 3,1798	-3,3229	 3,0243	-3,4462	-3,6776	-1,7344	 3,1177	-3,6251	-3,1396	 0,0000	 2,9725	-3,4995	 2,9243	-3,3528	 3,3419	 2,9783	 1,1636	 3,2411	-3,5017	 2,9433	 4,9982	-3,7295	 4,0959	 3,3119	 4,1003	-3,9981	 4,1580
12.06.2026 12:58:54	-3,0674	 2,7265	 3,4163	 3,0542	 2,9900	 3,1761	-3,3258	 3,0177	-3,4492	-3,6820	-1,7337	 3,1185	-3,6200	-3,1382	 0,0000	 2,9805	-3,4915	 2,9301	-3,3462	 3,3411	 2,9776	 1,1680	 3,2448	-3,4966	 2,9440	 4,9931	-3,6813	 4,0412	 3,3659	 4,0536	-3,9463	 4,1040
12.06.2026 12:58:54	-3,0557	 2,7199	 3,4156	 3,0469	 2,9893	 3,1754	-3,3192	 3,0155	-3,4440	-3,6791	-1,7308	 3,1083	-3,6251	-3,1367	 0,0000	 2,9820	-3,4754	 2,9258	-3,3470	 3,3353	 2,9747	 1,1687	 3,2426	-3,4966	 2,9396	 5,0588	-3,6360	 4,0142	 3,3973	 4,0324	-3,9098	 4,0784
12.06.2026 12:58:54	-3,0374	 2,7104	 3,4141	 3,0484	 2,9973	 3,1798	-3,3156	 3,0134	-3,4389	-3,6725	-1,7228	 3,1141	-3,6200	-3,1316	 0,0000	 2,9572	-3,4820	 2,9192	-3,3426	 3,3338	 2,9718	 1,1658	 3,2345	-3,4900	 2,9396	 5,2792	-3,6105	 3,9901	 3,4134	 4,0054	-3,8871	 4,0667
12.06.2026 12:58:54	-3,0185	 2,7141	 3,4112	 3,0484	 3,0046	 3,1834	-3,3105	 3,0119	-3,4360	-3,6674	-1,7198	 3,1177	-3,6098	-3,1280	 0,0000	 2,9542	-3,4776	 2,9163	-3,3360	 3,3338	 2,9710	 1,1680	 3,2302	-3,4842	 2,9389	 5,1975	-3,5973	 3,9901	 3,4294	 4,0018	-3,8587	 4,0718
12.06.2026 12:58:54	-3,0104	 2,7163	 3,4083	 3,0411	 3,0009	 3,1864	-3,3061	 3,0082	-3,4324	-3,6601	-1,7155	 3,1141	-3,6068	-3,1243	 0,0000	 2,9623	-3,4798	 2,9185	-3,3265	 3,3338	 2,9703	 1,1702	 3,2265	-3,4769	 2,9389	 4,8982	-3,5981	 3,9872	 3,4105	 3,9974	-3,8594	 4,0821
12.06.2026 12:58:54	-2,9958	 2,7279	 3,4148	 3,0389	 3,0068	 3,1937	-3,2981	 3,0061	-3,4287	-3,6550	-1,7111	 3,1141	-3,6003	-3,1177	 0,0000	 2,9608	-3,4805	 2,9177	-3,3229	 3,3294	 2,9674	 1,1665	 3,2258	-3,4740	 2,9367	 4,8135	-3,5813	 3,9645	 3,4134	 3,9908	-3,8441	 4,0748
12.06.2026 12:58:54	-2,9922	 2,7338	 3,4097	 3,0382	 3,0031	 3,1929	-3,2944	 3,0053	-3,4221	-3,6463	-1,7096	 3,1090	-3,5937	-3,1156	 0,0000	 2,9586	-3,4703	 2,9104	-3,3324	 3,3214	 2,9645	 1,1650	 3,2302	-3,4747	 2,9331	 4,8748	-3,5579	 3,9550	 3,4375	 3,9930	-3,8156	 4,0594
12.06.2026 12:58:54	-2,9915	 2,7250	 3,3981	 3,0280	 2,9951	 3,1856	-3,2944	 3,0009	-3,4229	-3,6484	-1,7023	 3,1031	-3,5879	-3,1112	 0,0000	 2,9542	-3,4718	 2,9090	-3,3207	 3,3229	 2,9623	 1,1643	 3,2258	-3,4711	 2,9309	 4,9500	-3,6061	 3,9828	 3,3813	 4,0310	-3,8674	 4,1134
12.06.2026 12:58:54	-3,0039	 2,7155	 3,3776	 3,0112	 2,9907	 3,1732	-3,2981	 2,9973	-3,4243	-3,6506	-1,7009	 3,1010	-3,6054	-3,1119	 0,0000	 2,9542	-3,4652	 2,9090	-3,3294	 3,3156	 2,9593	 1,1650	 3,2272	-3,4703	 2,9280	 4,7967	-3,6244	 3,9689	 3,3579	 4,0222	-3,8696	 4,1018
12.06.2026 12:58:54	-2,9980	 2,7090	 3,3645	 3,0039	 2,9878	 3,1718	-3,2951	 2,9936	-3,4214	-3,6499	-1,7045	 3,0988	-3,5959	-3,1104	 0,0000	 2,9477	-3,4462	 2,9097	-3,3287	 3,3112	 2,9550	 1,1658	 3,2258	-3,4689	 2,9258	 4,7222	-3,5981	 3,9120	 3,3856	 3,9521	-3,8419	 4,0171
12.06.2026 12:58:54	-2,9776	 2,6980	 3,3703	 3,0031	 2,9907	 3,1783	-3,2871	 2,9915	-3,4221	-3,6521	-1,7060	 3,0951	-3,5754	-3,1053	 0,0000	 2,9411	-3,4455	 2,9039	-3,3141	 3,3105	 2,9513	 1,1629	 3,2192	-3,4667	 2,9192	 4,8843	-3,5674	 3,8725	 3,4046	 3,9098	-3,8317	 3,9747
12.06.2026 12:58:54	-2,9805	 2,6980	 3,3630	 2,9980	 2,9885	 3,1732	-3,2856	 2,9878	-3,4163	-3,6441	-1,7023	 3,0973	-3,5915	-3,1083	 0,0000	 2,9455	-3,4367	 2,8988	-3,3324	 3,2988	 2,9469	 1,1636	 3,2163	-3,4674	 2,9141	 5,0201	-3,5287	 3,8594	 3,4433	 3,8930	-3,7915	 3,9638
12.06.2026 12:58:54	-2,9849	 2,6973	 3,3462	 2,9878	 2,9820	 3,1652	-3,2856	 2,9820	-3,4163	-3,6426	-1,7009	 3,0937	-3,5842	-3,1031	 0,0000	 2,9426	-3,4397	 2,8900	-3,3148	 3,2988	 2,9455	 1,1621	 3,2061	-3,4638	 2,9141	 5,0369	-3,5207	 3,8441	 3,4565	 3,8762	-3,7674	 3,9667
12.06.2026 12:58:54	-2,9769	 2,6841	 3,3367	 2,9761	 2,9791	 3,1623	-3,2849	 2,9776	-3,4192	-3,6433	-1,6950	 3,0900	-3,5842	-3,1010	 0,0000	 2,9389	-3,4667	 2,8966	-3,3061	 3,2959	 2,9433	 1,1599	 3,2097	-3,4594	 2,9112	 4,8347	-3,5185	 3,8083	 3,4397	 3,8412	-3,7740	 3,9492
12.06.2026 12:58:54	-2,9666	 2,6892	 3,3316	 2,9674	 2,9761	 3,1608	-3,2820	 2,9725	-3,4163	-3,6382	-1,6936	 3,0871	-3,5703	-3,1017	 0,0000	 2,9433	-3,4499	 2,9134	-3,3097	 3,2929	 2,9396	 1,1607	 3,2126	-3,4557	 2,9075	 4,5901	-3,5273	 3,7959	 3,4316	 3,8353	-3,7682	 3,9390
12.06.2026 12:58:54	-2,9645	 2,6965	 3,3287	 2,9674	 2,9769	 3,1586	-3,2762	 2,9696	-3,4119	-3,6338	-1,6906	 3,0864	-3,5630	-3,0951	 0,0000	 2,9331	-3,4287	 2,8929	-3,2922	 3,2944	 2,9382	 1,1570	 3,1973	-3,4521	 2,9046	 4,4500	-3,5185	 3,7952	 3,4375	 3,8360	-3,7543	 3,9492
12.06.2026 12:58:54	-2,9674	 2,6973	 3,3243	 2,9637	 2,9747	 3,1542	-3,2732	 2,9681	-3,4105	-3,6302	-1,6819	 3,0842	-3,5930	-3,0900	 0,0000	 2,9258	-3,4214	 2,8907	-3,2893	 3,2878	 2,9353	 1,1563	 3,1988	-3,4506	 2,8995	 4,4361	-3,5119	 3,7857	 3,4397	 3,8185	-3,7660	 3,9171
12.06.2026 12:58:54	-2,9593	 2,6805	 3,3163	 2,9528	 2,9747	 3,1528	-3,2710	 2,9637	-3,4134	-3,6324	-1,6870	 3,0805	-3,5886	-3,0864	 0,0000	 2,9221	-3,4229	 2,8944	-3,2973	 3,2849	 2,9323	 1,1541	 3,2010	-3,4492	 2,8951	 4,6390	-3,5170	 3,7952	 3,4221	 3,8346	-3,7638	 3,9076
12.06.2026 12:58:54	-2,9418	 2,6732	 3,3127	 2,9491	 2,9747	 3,1550	-3,2674	 2,9615	-3,4097	-3,6280	-1,6870	 3,0776	-3,5769	-3,0856	 0,0000	 2,9177	-3,4236	 2,8922	-3,2981	 3,2791	 2,9280	 1,1512	 3,1973	-3,4484	 2,8915	 4,5595	-3,4973	 3,8127	 3,4207	 3,8448	-3,7426	 3,9215
12.06.2026 12:58:54	-2,9236	 2,6790	 3,3097	 2,9469	 2,9732	 3,1572	-3,2645	 2,9586	-3,4061	-3,6258	-1,6870	 3,0710	-3,5674	-3,0849	 0,0000	 2,9163	-3,4192	 2,8871	-3,2981	 3,2718	 2,9228	 1,1475	 3,1871	-3,4492	 2,8842	 4,4492	-3,4915	 3,7959	 3,4280	 3,8295	-3,7317	 3,8959
12.06.2026 12:58:54	-2,9155	 2,6630	 3,3046	 2,9360	 2,9710	 3,1579	-3,2616	 2,9528	-3,4090	-3,6309	-1,6906	 3,0710	-3,5535	-3,0791	 0,0000	 2,9075	-3,4338	 2,8725	-3,2959	 3,2703	 2,9207	 1,1431	 3,1769	-3,4477	 2,8783	 4,4843	-3,4959	 3,7915	 3,4258	 3,8382	-3,7258	 3,8959
12.06.2026 12:58:54	-2,9294	 2,6542	 3,2886	 2,9199	 2,9630	 3,1484	-3,2623	 2,9469	-3,4112	-3,6331	-1,6921	 3,0674	-3,5528	-3,0776	 0,0000	 2,9031	-3,4353	 2,8717	-3,2900	 3,2674	 2,9170	 1,1410	 3,1761	-3,4470	 2,8754	 4,6135	-3,4835	 3,8039	 3,4448	 3,8412	-3,7141	 3,9134
12.06.2026 12:58:54	-2,9477	 2,6557	 3,2703	 2,9119	 2,9550	 3,1367	-3,2645	 2,9440	-3,4090	-3,6346	-1,6950	 3,0637	-3,5484	-3,0754	 0,0000	 2,8995	-3,4294	 2,8637	-3,2849	 3,2645	 2,9148	 1,1402	 3,1725	-3,4426	 2,8717	 4,7274	-3,4689	 3,7937	 3,4528	 3,8331	-3,7054	 3,8996
12.06.2026 12:58:54	-2,9433	 2,6484	 3,2659	 2,9061	 2,9528	 3,1316	-3,2616	 2,9411	-3,4068	-3,6317	-1,6914	 3,0608	-3,5441	-3,0718	 0,0000	 2,8958	-3,4221	 2,8644	-3,2798	 3,2630	 2,9148	 1,1395	 3,1740	-3,4353	 2,8717	 4,4711	-3,4667	 3,7835	 3,4543	 3,8287	-3,7025	 3,8784
12.06.2026 12:58:54	-2,9301	 2,6476	 3,2630	 2,9024	 2,9579	 3,1323	-3,2579	 2,9382	-3,4024	-3,6265	-1,6884	 3,0615	-3,5477	-3,0688	 0,0000	 2,8980	-3,4112	 2,8688	-3,2740	 3,2616	 2,9134	 1,1439	 3,1703	-3,4309	 2,8717	 4,3463	-3,4718	 3,7820	 3,4543	 3,8112	-3,7156	 3,8791
12.06.2026 12:58:54	-2,9272	 2,6484	 3,2579	 2,9009	 2,9586	 3,1323	-3,2543	 2,9353	-3,3981	-3,6200	-1,6775	 3,0637	-3,5448	-3,0645	 0,0000	 2,8944	-3,4192	 2,8703	-3,2659	 3,2616	 2,9126	 1,1424	 3,1732	-3,4251	 2,8732	 4,2222	-3,4988	 3,7696	 3,4397	 3,7937	-3,7309	 3,8674
12.06.2026 12:58:54	-2,9185	 2,6440	 3,2521	 2,9002	 2,9506	 3,1302	-3,2513	 2,9331	-3,3959	-3,6149	-1,6775	 3,0579	-3,5441	-3,0623	 0,0000	 2,8936	-3,4097	 2,8593	-3,2667	 3,2579	 2,9097	 1,1417	 3,1557	-3,4243	 2,8703	 4,2178	-3,4937	 3,7441	 3,4287	 3,7711	-3,7287	 3,8441
12.06.2026 12:58:54	-2,9082	 2,6506	 3,2455	 2,8973	 2,9462	 3,1287	-3,2484	 2,9294	-3,3922	-3,6105	-1,6811	 3,0557	-3,5419	-3,0572	 0,0000	 2,8922	-3,4039	 2,8542	-3,2659	 3,2557	 2,9068	 1,1446	 3,1499	-3,4221	 2,8652	 4,3872	-3,4849	 3,7353	 3,4360	 3,7536	-3,7244	 3,8368
12.06.2026 12:58:54	-2,9090	 2,6454	 3,2389	 2,8929	 2,9426	 3,1229	-3,2477	 2,9258	-3,3908	-3,6098	-1,6760	 3,0491	-3,5295	-3,0550	 0,0000	 2,8827	-3,4134	 2,8550	-3,2616	 3,2572	 2,9053	 1,1351	 3,1637	-3,4148	 2,8637	 4,2448	-3,4959	 3,7426	 3,4440	 3,7506	-3,7222	 3,8441
12.06.2026 12:58:54	-2,9185	 2,6367	 3,2272	 2,8834	 2,9396	 3,1141	-3,2491	 2,9214	-3,3900	-3,6105	-1,6753	 3,0411	-3,5243	-3,0564	 0,0000	 2,8798	-3,4134	 2,8506	-3,2674	 3,2491	 2,9017	 1,1337	 3,1550	-3,4141	 2,8593	 4,1704	-3,4805	 3,7397	 3,4163	 3,7397	-3,7229	 3,8441
12.06.2026 12:58:54	-2,9177	 2,6396	 3,2178	 2,8761	 2,9360	 3,1090	-3,2484	 2,9177	-3,3886	-3,6061	-1,6731	 3,0426	-3,5280	-3,0542	 0,0000	 2,8790	-3,4229	 2,8484	-3,2630	 3,2433	 2,8980	 1,1351	 3,1535	-3,4127	 2,8564	 4,4025	-3,4835	 3,7506	 3,3893	 3,7433	-3,7411	 3,8382
12.06.2026 12:58:54	-2,9104	 2,6352	 3,2075	 2,8688	 2,9316	 3,1061	-3,2470	 2,9141	-3,3864	-3,6039	-1,6746	 3,0389	-3,5287	-3,0513	 0,0000	 2,8747	-3,4221	 2,8425	-3,2557	 3,2433	 2,8958	 1,1329	 3,1462	-3,4090	 2,8542	 4,6288	-3,4842	 3,7528	 3,3827	 3,7521	-3,7484	 3,8550
12.06.2026 12:58:54	-2,9075	 2,6272	 3,1995	 2,8623	 2,9301	 3,1024	-3,2440	 2,9104	-3,3835	-3,6010	-1,6768	 3,0345	-3,5243	-3,0491	 0,0000	 2,8732	-3,4097	 2,8433	-3,2543	 3,2389	 2,8929	 1,1329	 3,1426	-3,4046	 2,8528	 4,5062	-3,4586	 3,7470	 3,4024	 3,7565	-3,7236	 3,8631
12.06.2026 12:58:54	-2,9039	 2,6272	 3,1944	 2,8579	 2,9294	 3,0995	-3,2418	 2,9075	-3,3835	-3,5973	-1,6731	 3,0382	-3,5200	-3,0455	 0,0000	 2,8696	-3,3937	 2,8382	-3,2455	 3,2382	 2,8915	 1,1322	 3,1411	-3,3981	 2,8528	 4,2565	-3,4565	 3,7397	 3,3973	 3,7557	-3,7127	 3,8368
12.06.2026 12:58:54	-2,9082	 2,6330	 3,1878	 2,8557	 2,9272	 3,0944	-3,2389	 2,9039	-3,3776	-3,5908	-1,6680	 3,0345	-3,5214	-3,0426	 0,0000	 2,8644	-3,3827	 2,8338	-3,2418	 3,2360	 2,8885	 1,1315	 3,1375	-3,3937	 2,8506	 4,1164	-3,4630	 3,7280	 3,3798	 3,7397	-3,6952	 3,8266
12.06.2026 12:58:54	-2,9039	 2,6338	 3,1842	 2,8513	 2,9221	 3,0944	-3,2367	 2,9002	-3,3740	-3,5864	-1,6665	 3,0309	-3,5192	-3,0382	 0,0000	 2,8652	-3,3798	 2,8323	-3,2331	 3,2338	 2,8856	 1,1293	 3,1404	-3,3893	 2,8469	 4,0470	-3,4681	 3,7506	 3,3703	 3,7579	-3,6879	 3,8514
12.06.2026 12:58:54	-2,9068	 2,6206	 3,1769	 2,8418	 2,9192	 3,0900	-3,2302	 2,8966	-3,3754	-3,5879	-1,6651	 3,0280	-3,5163	-3,0331	 0,0000	 2,8608	-3,3762	 2,8309	-3,2367	 3,2302	 2,8827	 1,1285	 3,1353	-3,3871	 2,8425	 4,0806	-3,4492	 3,7280	 3,3813	 3,7397	-3,6682	 3,8105
12.06.2026 12:58:54	-2,9053	 2,6192	 3,1637	 2,8389	 2,9141	 3,0776	-3,2287	 2,8936	-3,3703	-3,5857	-1,6629	 3,0214	-3,5127	-3,0316	 0,0000	 2,8571	-3,3893	 2,8243	-3,2375	 3,2251	 2,8783	 1,1264	 3,1287	-3,3871	 2,8382	 4,2127	-3,3579	 3,6623	 3,4579	 3,6776	-3,5871	 3,7324
12.06.2026 12:58:54	-2,8893	 2,6235	 3,1608	 2,8360	 2,9112	 3,0849	-3,2331	 2,8929	-3,3652	-3,5820	-1,6644	 3,0199	-3,5229	-3,0287	 0,0000	 2,8615	-3,4017	 2,8199	-3,2309	 3,2229	 2,8761	 1,1264	 3,1236	-3,3842	 2,8367	 4,1894	-3,3375	 3,6565	 3,4681	 3,6901	-3,5740	 3,7339
12.06.2026 12:58:54	-2,8893	 2,6192	 3,1542	 2,8309	 2,9097	 3,0798	-3,2309	 2,8900	-3,3623	-3,5769	-1,6614	 3,0141	-3,5382	-3,0258	 0,0000	 2,8579	-3,3798	 2,8243	-3,2353	 3,2185	 2,8725	 1,1264	 3,1214	-3,3827	 2,8338	 4,1346	-3,3703	 3,6755	 3,4346	 3,7127	-3,6046	 3,7411
12.06.2026 12:58:54	-2,8717	 2,6111	 3,1455	 2,8250	 2,9082	 3,0732	-3,2280	 2,8871	-3,3608	-3,5754	-1,6607	 3,0112	-3,5149	-3,0265	 0,0000	 2,8477	-3,3608	 2,8155	-3,2324	 3,2163	 2,8696	 1,1249	 3,1192	-3,3776	 2,8316	 4,3251	-3,3849	 3,6740	 3,4097	 3,6988	-3,6061	 3,7360
12.06.2026 12:58:54	-2,8717	 2,5958	 3,1411	 2,8185	 2,9090	 3,0754	-3,2258	 2,8842	-3,3586	-3,5725	-1,6592	 3,0112	-3,4908	-3,0250	 0,0000	 2,8440	-3,3586	 2,8104	-3,2258	 3,2156	 2,8674	 1,1256	 3,1148	-3,3740	 2,8301	 4,5281	-3,3878	 3,6755	 3,4039	 3,6937	-3,6054	 3,7484
12.06.2026 12:58:54	-2,8915	 2,5973	 3,1331	 2,8126	 2,9046	 3,0652	-3,2243	 2,8805	-3,3565	-3,5689	-1,6541	 3,0061	-3,4813	-3,0199	 0,0000	 2,8462	-3,3535	 2,8294	-3,2221	 3,2126	 2,8659	 1,1271	 3,1229	-3,3725	 2,8272	 4,6697	-3,3798	 3,6769	 3,3981	 3,7010	-3,6251	 3,7499
12.06.2026 12:58:54	-2,8958	 2,5973	 3,1287	 2,8119	 2,8958	 3,0608	-3,2229	 2,8776	-3,3521	-3,5689	-1,6629	 3,0039	-3,4776	-3,0177	 0,0000	 2,8425	-3,3659	 2,8258	-3,2141	 3,2126	 2,8652	 1,1249	 3,1221	-3,3652	 2,8265	 4,4865	-3,3842	 3,6755	 3,3835	 3,6988	-3,6302	 3,7375
12.06.2026 12:58:54	-2,8834	 2,6053	 3,1243	 2,8104	 2,8973	 3,0601	-3,2199	 2,8754	-3,3484	-3,5652	-1,6541	 3,0082	-3,4849	-3,0148	 0,0000	 2,8411	-3,3710	 2,8090	-3,2053	 3,2090	 2,8608	 1,1234	 3,1156	-3,3601	 2,8236	 4,4047	-3,3937	 3,6747	 3,3813	 3,6944	-3,6397	 3,7433
12.06.2026 12:58:54	-2,8747	 2,6104	 3,1141	 2,8046	 2,8988	 3,0564	-3,2185	 2,8710	-3,3462	-3,5579	-1,6425	 3,0053	-3,4857	-3,0119	 0,0000	 2,8433	-3,3608	 2,8141	-3,2068	 3,2053	 2,8601	 1,1256	 3,1185	-3,3557	 2,8221	 4,3273	-3,4024	 3,6594	 3,3805	 3,6952	-3,6492	 3,7470
12.06.2026 12:58:54	-2,8827	 2,6097	 3,1083	 2,8031	 2,8944	 3,0535	-3,2148	 2,8674	-3,3419	-3,5470	-1,6403	 3,0002	-3,4784	-3,0075	 0,0000	 2,8367	-3,3484	 2,8112	-3,2024	 3,2053	 2,8586	 1,1249	 3,1090	-3,3521	 2,8206	 4,1675	-3,3981	 3,6528	 3,3966	 3,6908	-3,6171	 3,7193
12.06.2026 12:58:54	-2,8747	 2,6170	 3,1068	 2,7995	 2,8878	 3,0513	-3,2112	 2,8659	-3,3382	-3,5404	-1,6359	 2,9958	-3,4740	-3,0046	 0,0000	 2,8316	-3,3433	 2,8024	-3,1995	 3,2010	 2,8550	 1,1242	 3,1068	-3,3499	 2,8185	 4,1959	-3,3718	 3,6411	 3,4032	 3,6835	-3,6119	 3,7105
12.06.2026 12:58:54	-2,8696	 2,6177	 3,1017	 2,7914	 2,8885	 3,0506	-3,2083	 2,8644	-3,3375	-3,5397	-1,6337	 2,9995	-3,4703	-3,0017	 0,0000	 2,8309	-3,3448	 2,8009	-3,1988	 3,1995	 2,8528	 1,1227	 3,1090	-3,3433	 2,8185	 4,1127	-3,3492	 3,6368	 3,4127	 3,6835	-3,5988	 3,7163
12.06.2026 12:58:54	-2,8688	 2,6082	 3,0951	 2,7885	 2,8900	 3,0469	-3,2046	 2,8623	-3,3353	-3,5389	-1,6322	 2,9973	-3,4630	-2,9966	 0,0000	 2,8294	-3,3331	 2,8039	-3,1951	 3,1966	 2,8506	 1,1227	 3,1061	-3,3397	 2,8163	 4,2266	-3,3462	 3,6463	 3,4294	 3,6791	-3,5725	 3,7120
12.06.2026 12:58:54	-2,8608	 2,5965	 3,0878	 2,7871	 2,8849	 3,0418	-3,2032	 2,8593	-3,3309	-3,5368	-1,6373	 2,9885	-3,4740	-2,9958	 0,0000	 2,8265	-3,3265	 2,7987	-3,1980	 3,1922	 2,8484	 1,1256	 3,1046	-3,3389	 2,8141	 4,4332	-3,3331	 3,6258	 3,4346	 3,6725	-3,5660	 3,7178
12.06.2026 12:58:54	-2,8557	 2,5936	 3,0820	 2,7863	 2,8776	 3,0396	-3,1995	 2,8557	-3,3265	-3,5324	-1,6337	 2,9878	-3,4689	-2,9915	 0,0000	 2,8236	-3,3280	 2,7936	-3,1951	 3,1893	 2,8447	 1,1242	 3,0958	-3,3360	 2,8112	 4,5208	-3,3346	 3,6178	 3,4397	 3,6674	-3,5616	 3,7382
12.06.2026 12:58:54	-2,8535	 2,5856	 3,0776	 2,7798	 2,8754	 3,0382	-3,1959	 2,8513	-3,3251	-3,5316	-1,6322	 2,9812	-3,4674	-2,9885	 0,0000	 2,8221	-3,3207	 2,7951	-3,1944	 3,1856	 2,8418	 1,1234	 3,0907	-3,3346	 2,8075	 4,6281	-3,3273	 3,6368	 3,4397	 3,6623	-3,5608	 3,7477
12.06.2026 12:58:54	-2,8447	 2,5746	 3,0696	 2,7695	 2,8805	 3,0353	-3,1966	 2,8469	-3,3265	-3,5316	-1,6352	 2,9791	-3,4659	-2,9842	 0,0000	 2,8214	-3,3185	 2,7944	-3,1834	 3,1834	 2,8396	 1,1234	 3,0951	-3,3294	 2,8075	 4,5003	-3,3156	 3,6557	 3,4360	 3,6718	-3,5353	 3,7484
12.06.2026 12:58:54	-2,8331	 2,5856	 3,0681	 2,7688	 2,8805	 3,0345	-3,1951	 2,8447	-3,3214	-3,5251	-1,6227	 2,9827	-3,4389	-2,9827	 0,0000	 2,8192	-3,3506	 2,7995	-3,1740	 3,1805	 2,8382	 1,1205	 3,0973	-3,3236	 2,8053	 4,2361	-3,3258	 3,6404	 3,4192	 3,6536	-3,5280	 3,7477
12.06.2026 12:58:54	-2,8389	 2,6031	 3,0681	 2,7688	 2,8790	 3,0316	-3,1900	 2,8433	-3,3127	-3,5178	-1,6133	 2,9834	-3,4433	-2,9798	 0,0000	 2,8228	-3,3499	 2,7966	-3,1688	 3,1798	 2,8367	 1,1220	 3,0937	-3,3200	 2,8039	 4,1799	-3,3054	 3,6470	 3,4156	 3,6492	-3,5375	 3,7579
12.06.2026 12:58:54	-2,8462	 2,5980	 3,0623	 2,7681	 2,8754	 3,0272	-3,1864	 2,8404	-3,3105	-3,5112	-1,6162	 2,9805	-3,4492	-2,9739	 0,0000	 2,8163	-3,3178	 2,7951	-3,1696	 3,1798	 2,8345	 1,1220	 3,0922	-3,3141	 2,8039	 4,0981	-3,2878	 3,6594	 3,4273	 3,6579	-3,5346	 3,7484
12.06.2026 12:58:54	-2,8455	 2,5819	 3,0535	 2,7622	 2,8696	 3,0228	-3,1864	 2,8367	-3,3119	-3,5097	-1,6220	 2,9739	-3,4419	-2,9703	 0,0000	 2,8060	-3,3265	 2,7900	-3,1637	 3,1791	 2,8331	 1,1183	 3,0856	-3,3119	 2,7973	 4,1726	-3,2900	 3,6309	 3,4119	 3,6499	-3,5382	 3,7258
12.06.2026 12:58:54	-2,8374	 2,5761	 3,0491	 2,7593	 2,8688	 3,0221	-3,1842	 2,8345	-3,3075	-3,5090	-1,6191	 2,9696	-3,4360	-2,9681	 0,0000	 2,8075	-3,3221	 2,7783	-3,1630	 3,1718	 2,8294	 1,1169	 3,0754	-3,3119	 2,7929	 4,0835	-3,2929	 3,6134	 3,3908	 3,6338	-3,5353	 3,7134
12.06.2026 12:58:54	-2,8331	 2,5856	 3,0455	 2,7564	 2,8674	 3,0199	-3,1813	 2,8316	-3,3054	-3,5046	-1,6125	 2,9681	-3,4367	-2,9674	 0,0000	 2,8046	-3,3002	 2,7754	-3,1732	 3,1659	 2,8258	 1,1176	 3,0732	-3,3105	 2,7922	 3,9988	-3,3068	 3,5966	 3,3791	 3,6119	-3,5411	 3,6974
12.06.2026 12:58:54	-2,8331	 2,5878	 3,0404	 2,7513	 2,8579	 3,0126	-3,1805	 2,8279	-3,3010	-3,4973	-1,6081	 2,9637	-3,4324	-2,9659	 0,0000	 2,8053	-3,2922	 2,7739	-3,1696	 3,1630	 2,8228	 1,1169	 3,0718	-3,3083	 2,7893	 4,1339	-3,3221	 3,5893	 3,3630	 3,6032	-3,5660	 3,6952
12.06.2026 12:58:54	-2,8294	 2,5827	 3,0382	 2,7476	 2,8535	 3,0097	-3,1769	 2,8250	-3,2973	-3,4944	-1,6067	 2,9586	-3,4258	-2,9623	 0,0000	 2,8031	-3,2929	 2,7761	-3,1674	 3,1608	 2,8206	 1,1161	 3,0725	-3,3068	 2,7871	 4,1572	-3,3207	 3,5995	 3,3616	 3,6098	-3,5660	 3,7207
12.06.2026 12:58:54	-2,8279	 2,5783	 3,0301	 2,7440	 2,8550	 3,0068	-3,1740	 2,8221	-3,2959	-3,4937	-1,6081	 2,9572	-3,4258	-2,9586	 0,0000	 2,7966	-3,2900	 2,7739	-3,1586	 3,1572	 2,8192	 1,1161	 3,0718	-3,3046	 2,7849	 4,2047	-3,3017	 3,6061	 3,3740	 3,6236	-3,5448	 3,7426
12.06.2026 12:58:54	-2,8258	 2,5805	 3,0214	 2,7418	 2,8542	 3,0031	-3,1718	 2,8185	-3,2922	-3,4849	-1,5994	 2,9550	-3,4265	-2,9564	 0,0000	 2,7936	-3,2805	 2,7754	-3,1557	 3,1535	 2,8163	 1,1176	 3,0703	-3,2995	 2,7841	 3,9171	-3,2973	 3,5849	 3,3740	 3,6061	-3,5645	 3,7032
12.06.2026 12:58:54	-2,8185	 2,5732	 3,0170	 2,7367	 2,8535	 2,9988	-3,1725	 2,8133	-3,2922	-3,4842	-1,5972	 2,9557	-3,4258	-2,9557	 0,0000	 2,7914	-3,2769	 2,7761	-3,1484	 3,1528	 2,8148	 1,1183	 3,0696	-3,2937	 2,7841	 3,7638	-3,2951	 3,5776	 3,3718	 3,6061	-3,5733	 3,6879
12.06.2026 12:58:54	-2,8082	 2,5644	 3,0134	 2,7309	 2,8557	 3,0002	-3,1696	 2,8097	-3,2893	-3,4827	-1,5979	 2,9572	-3,4178	-2,9513	 0,0000	 2,7885	-3,2769	 2,7725	-3,1426	 3,1499	 2,8126	 1,1183	 3,0659	-3,2886	 2,7812	 3,7010	-3,2951	 3,5842	 3,3703	 3,6046	-3,5543	 3,6901
12.06.2026 12:58:54	-2,8053	 2,5659	 3,0126	 2,7287	 2,8550	 3,0017	-3,1637	 2,8075	-3,2856	-3,4798	-1,5994	 2,9520	-3,4324	-2,9455	 0,0000	 2,7878	-3,2740	 2,7717	-3,1426	 3,1484	 2,8090	 1,1191	 3,0608	-3,2864	 2,7783	 3,6879	-3,3075	 3,5667	 3,3630	 3,5747	-3,5660	 3,6682
12.06.2026 12:58:54	-2,8090	 2,5652	 3,0090	 2,7272	 2,8447	 2,9958	-3,1594	 2,8046	-3,2835	-3,4754	-1,5972	 2,9455	-3,4302	-2,9411	 0,0000	 2,7856	-3,2718	 2,7637	-3,1426	 3,1448	 2,8068	 1,1176	 3,0564	-3,2849	 2,7761	 4,0061	-3,2871	 3,5652	 3,3645	 3,5667	-3,5426	 3,6696
12.06.2026 12:58:54	-2,8053	 2,5673	 3,0061	 2,7243	 2,8425	 2,9915	-3,1572	 2,8024	-3,2791	-3,4681	-1,5928	 2,9433	-3,4046	-2,9382	 0,0000	 2,7820	-3,2696	 2,7593	-3,1404	 3,1433	 2,8046	 1,1161	 3,0542	-3,2791	 2,7761	 3,9375	-3,2900	 3,5543	 3,3594	 3,5528	-3,5346	 3,6609
12.06.2026 12:58:54	-2,7987	 2,5593	 3,0002	 2,7221	 2,8396	 2,9900	-3,1564	 2,8002	-3,2769	-3,4674	-1,5884	 2,9404	-3,3929	-2,9360	 0,0000	 2,7783	-3,2652	 2,7593	-3,1338	 3,1426	 2,8017	 1,1154	 3,0484	-3,2762	 2,7732	 3,8711	-3,2988	 3,5382	 3,3608	 3,5441	-3,5484	 3,6470
12.06.2026 12:58:54	-2,7980	 2,5579	 2,9929	 2,7177	 2,8345	 2,9864	-3,1535	 2,7966	-3,2762	-3,4674	-1,5906	 2,9345	-3,3944	-2,9345	 0,0000	 2,7717	-3,2674	 2,7498	-3,1360	 3,1375	 2,7987	 1,1132	 3,0499	-3,2747	 2,7688	 4,1178	-3,2805	 3,5309	 3,3535	 3,5433	-3,5316	 3,6419
12.06.2026 12:58:54	-2,8075	 2,5557	 2,9871	 2,7148	 2,8323	 2,9791	-3,1521	 2,7944	-3,2718	-3,4638	-1,5870	 2,9331	-3,3973	-2,9323	 0,0000	 2,7717	-3,2616	 2,7535	-3,1302	 3,1360	 2,7973	 1,1132	 3,0491	-3,2703	 2,7688	 4,2310	-3,2754	 3,5214	 3,3382	 3,5470	-3,5200	 3,6565
12.06.2026 12:58:54	-2,8053	 2,5571	 2,9820	 2,7104	 2,8301	 2,9769	-3,1484	 2,7900	-3,2674	-3,4572	-1,5789	 2,9338	-3,3893	-2,9294	 0,0000	 2,7717	-3,2557	 2,7601	-3,1258	 3,1338	 2,7936	 1,1147	 3,0447	-3,2667	 2,7652	 4,3127	-3,2681	 3,5207	 3,3455	 3,5557	-3,5090	 3,6755
12.06.2026 12:58:54	-2,7893	 2,5681	 2,9849	 2,7141	 2,8287	 2,9791	-3,1440	 2,7878	-3,2601	-3,4492	-1,5819	 2,9294	-3,3878	-2,9243	 0,0000	 2,7710	-3,2586	 2,7506	-3,1243	 3,1302	 2,7907	 1,1118	 3,0447	-3,2608	 2,7622	 4,3631	-3,2586	 3,5119	 3,3492	 3,5448	-3,5032	 3,6565
12.06.2026 12:58:54	-2,7856	 2,5703	 2,9820	 2,7163	 2,8279	 2,9776	-3,1411	 2,7849	-3,2543	-3,4404	-1,5760	 2,9272	-3,3886	-2,9214	 0,0000	 2,7695	-3,2513	 2,7542	-3,1156	 3,1280	 2,7878	 1,1103	 3,0447	-3,2564	 2,7615	 4,1404	-3,2426	 3,5112	 3,3521	 3,5608	-3,4835	 3,6433
12.06.2026 12:58:54	-2,7863	 2,5586	 2,9761	 2,7068	 2,8272	 2,9747	-3,1396	 2,7812	-3,2550	-3,4404	-1,5826	 2,9287	-3,3820	-2,9192	 0,0000	 2,7652	-3,2404	 2,7498	-3,1090	 3,1243	 2,7849	 1,1110	 3,0411	-3,2528	 2,7593	 4,0748	-3,2484	 3,5105	 3,3258	 3,5696	-3,4813	 3,6506
12.06.2026 12:58:54	-2,7944	 2,5454	 2,9688	 2,7031	 2,8133	 2,9666	-3,1404	 2,7776	-3,2528	-3,4411	-1,5797	 2,9199	-3,3820	-2,9185	 0,0000	 2,7630	-3,2382	 2,7403	-3,1104	 3,1214	 2,7820	 1,1096	 3,0323	-3,2513	 2,7549	 4,0572	-3,2703	 3,5229	 3,3002	 3,5579	-3,4864	 3,6390
12.06.2026 12:58:54	-2,7914	 2,5433	 2,9593	 2,7017	 2,8104	 2,9601	-3,1389	 2,7732	-3,2506	-3,4389	-1,5680	 2,9134	-3,3835	-2,9163	 0,0000	 2,7564	-3,2491	 2,7330	-3,1104	 3,1177	 2,7790	 1,1059	 3,0272	-3,2506	 2,7484	 3,9857	-3,2718	 3,5368	 3,3046	 3,5572	-3,4703	 3,6295
12.06.2026 12:58:54	-2,7841	 2,5338	 2,9564	 2,6929	 2,8141	 2,9564	-3,1375	 2,7703	-3,2521	-3,4382	-1,5738	 2,9119	-3,3835	-2,9141	 0,0000	 2,7579	-3,2652	 2,7345	-3,1090	 3,1148	 2,7776	 1,1059	 3,0287	-3,2462	 2,7469	 4,0142	-3,2630	 3,5105	 3,3017	 3,5324	-3,4623	 3,6156
12.06.2026 12:58:54	-2,7878	 2,5396	 2,9499	 2,6878	 2,8112	 2,9520	-3,1353	 2,7666	-3,2499	-3,4324	-1,5724	 2,9082	-3,3842	-2,9134	 0,0000	 2,7579	-3,2572	 2,7316	-3,1097	 3,1112	 2,7717	 1,1059	 3,0236	-3,2440	 2,7447	 3,9499	-3,2528	 3,4842	 3,2951	 3,5251	-3,4608	 3,5995
12.06.2026 12:58:54	-2,7820	 2,5389	 2,9484	 2,6892	 2,8053	 2,9528	-3,1316	 2,7659	-3,2418	-3,4273	-1,5658	 2,9046	-3,3769	-2,9090	 0,0000	 2,7528	-3,2338	 2,7214	-3,1068	 3,1075	 2,7681	 1,1059	 3,0082	-3,2433	 2,7411	 4,0813	-3,2448	 3,4791	 3,2944	 3,5382	-3,4616	 3,6141
12.06.2026 12:58:54	-2,7732	 2,5396	 2,9469	 2,6907	 2,8031	 2,9528	-3,1265	 2,7644	-3,2345	-3,4200	-1,5629	 2,9031	-3,3747	-2,9061	 0,0000	 2,7513	-3,2192	 2,7301	-3,1031	 3,1039	 2,7674	 1,1088	 3,0090	-3,2389	 2,7411	 4,2558	-3,2331	 3,4659	 3,2973	 3,5338	-3,4528	 3,6229
12.06.2026 12:58:54	-2,7739	 2,5462	 2,9418	 2,6892	 2,8068	 2,9469	-3,1250	 2,7622	-3,2302	-3,4185	-1,5658	 2,9024	-3,3776	-2,9046	 0,0000	 2,7469	-3,2119	 2,7301	-3,0973	 3,1017	 2,7652	 1,1045	 3,0243	-3,2353	 2,7382	 4,4704	-3,2170	 3,4645	 3,3024	 3,5346	-3,4419	 3,6214
12.06.2026 12:58:54	-2,7703	 2,5352	 2,9374	 2,6827	 2,8002	 2,9447	-3,1243	 2,7586	-3,2287	-3,4178	-1,5651	 2,9017	-3,3674	-2,9009	 0,0000	 2,7476	-3,2243	 2,7257	-3,0915	 3,1002	 2,7644	 1,1037	 3,0207	-3,2309	 2,7367	 4,4726	-3,2309	 3,4878	 3,2827	 3,5338	-3,4616	 3,6302
12.06.2026 12:58:54	-2,7637	 2,5323	 2,9309	 2,6739	 2,7973	 2,9426	-3,1221	 2,7535	-3,2287	-3,4148	-1,5665	 2,8988	-3,3623	-2,8973	 0,0000	 2,7520	-3,2294	 2,7257	-3,0805	 3,0995	 2,7615	 1,1067	 3,0170	-3,2265	 2,7367	 4,2551	-3,2426	 3,4973	 3,2645	 3,5236	-3,4813	 3,6287
12.06.2026 12:58:54	-2,7601	 2,5301	 2,9258	 2,6725	 2,7995	 2,9389	-3,1199	 2,7513	-3,2251	-3,4141	-1,5592	 2,8944	-3,3623	-2,8951	 0,0000	 2,7447	-3,2119	 2,7250	-3,0776	 3,0951	 2,7579	 1,1052	 3,0170	-3,2236	 2,7330	 4,3091	-3,2382	 3,4791	 3,2594	 3,5163	-3,4740	 3,6083
12.06.2026 12:58:54	-2,7652	 2,5287	 2,9250	 2,6739	 2,7980	 2,9382	-3,1163	 2,7498	-3,2214	-3,4083	-1,5570	 2,8915	-3,3579	-2,8944	 0,0000	 2,7382	-3,2002	 2,7199	-3,0820	 3,0900	 2,7549	 1,1037	 3,0104	-3,2221	 2,7301	 4,1631	-3,2316	 3,4725	 3,2645	 3,5214	-3,4681	 3,6046
12.06.2026 12:58:54	-2,7703	 2,5243	 2,9221	 2,6717	 2,7914	 2,9316	-3,1134	 2,7469	-3,2178	-3,4039	-1,5600	 2,8893	-3,3535	-2,8915	 0,0000	 2,7382	-3,2053	 2,7060	-3,0761	 3,0893	 2,7528	 1,1023	 3,0046	-3,2185	 2,7272	 3,8346	-3,2251	 3,4667	 3,2550	 3,5076	-3,4667	 3,5908
12.06.2026 12:58:54	-2,7674	 2,5272	 2,9148	 2,6688	 2,7820	 2,9236	-3,1141	 2,7440	-3,2134	-3,3995	-1,5556	 2,8812	-3,3586	-2,8863	 0,0000	 2,7345	-3,2024	 2,7038	-3,0732	 3,0878	 2,7491	 1,1015	 2,9958	-3,2170	 2,7221	 3,6411	-3,2199	 3,4470	 3,2506	 3,4827	-3,4440	 3,5652
12.06.2026 12:58:54	-2,7732	 2,5082	 2,9082	 2,6513	 2,7739	 2,9177	-3,1126	 2,7382	-3,2221	-3,4097	-1,5716	 2,8703	-3,3630	-2,8812	 0,0000	 2,7279	-3,1966	 2,7017	-3,0732	 3,0893	 2,7469	 1,1008	 2,9922	-3,2141	 2,7177	 3,6703	-3,2141	 3,4404	 3,2645	 3,4900	-3,4280	 3,5740
12.06.2026 12:58:54	-2,7732	 2,4776	 2,8936	 2,6301	 2,7717	 2,9090	-3,1141	 2,7330	-3,2309	-3,4265	-1,5775	 2,8703	-3,3499	-2,8842	 0,0000	 2,7199	-3,2075	 2,6995	-3,0732	 3,0842	 2,7455	 1,0994	 2,9944	-3,2126	 2,7177	 3,9901	-3,2134	 3,4178	 3,2491	 3,4842	-3,4433	 3,5616
12.06.2026 12:58:54	-2,7739	 2,4776	 2,8754	 2,6214	 2,7695	 2,9017	-3,1170	 2,7294	-3,2265	-3,4258	-1,5709	 2,8674	-3,3462	-2,8849	 0,0000	 2,7163	-3,2126	 2,6995	-3,0761	 3,0754	 2,7418	 1,0994	 2,9929	-3,2134	 2,7155	 4,2120	-3,2170	 3,4075	 3,2462	 3,4820	-3,4477	 3,5638
12.06.2026 12:58:54	-2,7754	 2,4776	 2,8725	 2,6214	 2,7630	 2,9017	-3,1119	 2,7257	-3,2199	-3,4170	-1,5658	 2,8615	-3,3528	-2,8754	 0,0000	 2,7163	-3,2090	 2,6958	-3,0703	 3,0761	 2,7389	 1,0979	 2,9878	-3,2090	 2,7119	 4,3667	-3,2229	 3,4148	 3,2448	 3,4900	-3,4287	 3,5711
12.06.2026 12:58:54	-2,7579	 2,5038	 2,8863	 2,6549	 2,7666	 2,9046	-3,1039	 2,7294	-3,1966	-3,3871	-1,5476	 2,8608	-3,3411	-2,8732	 0,0000	 2,7214	-3,1966	 2,6936	-3,0645	 3,0718	 2,7338	 1,0972	 2,9871	-3,2075	 2,7068	 4,3448	-3,2236	 3,4141	 3,2353	 3,4798	-3,4273	 3,5535
12.06.2026 12:58:54	-2,7425	 2,5301	 2,9009	 2,6790	 2,7717	 2,9090	-3,0951	 2,7316	-3,1776	-3,3608	-1,5330	 2,8615	-3,3280	-2,8725	 0,0000	 2,7272	-3,1849	 2,6929	-3,0579	 3,0674	 2,7309	 1,0979	 2,9849	-3,2039	 2,7038	 3,9368	-3,2294	 3,4185	 3,2309	 3,4849	-3,4353	 3,5397
12.06.2026 12:58:54	-2,7360	 2,5235	 2,9002	 2,6695	 2,7710	 2,9090	-3,0929	 2,7272	-3,1761	-3,3601	-1,5344	 2,8608	-3,3294	-2,8681	 0,0000	 2,7257	-3,1725	 2,6973	-3,0528	 3,0652	 2,7294	 1,0972	 2,9820	-3,1995	 2,7024	 3,7120	-3,2097	 3,4170	 3,2294	 3,4769	-3,4236	 3,5368
12.06.2026 12:58:54	-2,7330	 2,5133	 2,8944	 2,6586	 2,7615	 2,9039	-3,0900	 2,7236	-3,1791	-3,3667	-1,5410	 2,8535	-3,3258	-2,8644	 0,0000	 2,7170	-3,1747	 2,6951	-3,0535	 3,0615	 2,7250	 1,0942	 2,9798	-3,1988	 2,6995	 3,7404	-3,2681	 3,4784	 3,1579	 3,5316	-3,4981	 3,5944
12.06.2026 12:58:54	-2,7279	 2,5068	 2,8893	 2,6513	 2,7513	 2,9009	-3,0885	 2,7206	-3,1820	-3,3681	-1,5461	 2,8455	-3,3251	-2,8623	 0,0000	 2,7111	-3,1776	 2,6885	-3,0550	 3,0586	 2,7228	 1,0921	 2,9769	-3,1966	 2,6944	 3,8244	-3,2981	 3,5236	 3,1097	 3,5820	-3,5404	 3,6331
12.06.2026 12:58:54	-2,7411	 2,4929	 2,8769	 2,6425	 2,7513	 2,8900	-3,0922	 2,7155	-3,1834	-3,3703	-1,5461	 2,8425	-3,3251	-2,8615	 0,0000	 2,7068	-3,1776	 2,6761	-3,0528	 3,0557	 2,7206	 1,0921	 2,9696	-3,1937	 2,6936	 3,8455	-3,2404	 3,4732	 3,1521	 3,5382	-3,4857	 3,5973
12.06.2026 12:58:54	-2,7557	 2,4922	 2,8652	 2,6352	 2,7462	 2,8856	-3,0922	 2,7104	-3,1820	-3,3674	-1,5388	 2,8360	-3,3236	-2,8608	 0,0000	 2,7017	-3,1798	 2,6695	-3,0564	 3,0513	 2,7170	 1,0913	 2,9645	-3,1907	 2,6914	 3,9258	-3,2331	 3,4608	 3,1637	 3,5375	-3,4667	 3,5827
12.06.2026 12:58:54	-2,7498	 2,4980	 2,8623	 2,6352	 2,7374	 2,8805	-3,0849	 2,7111	-3,1769	-3,3601	-1,5432	 2,8272	-3,3243	-2,8571	 0,0000	 2,7024	-3,1710	 2,6681	-3,0579	 3,0484	 2,7126	 1,0899	 2,9593	-3,1900	 2,6863	 4,1134	-3,2090	 3,4754	 3,1769	 3,5338	-3,4426	 3,5849
12.06.2026 12:58:54	-2,7455	 2,4863	 2,8644	 2,6360	 2,7374	 2,8761	-3,0805	 2,7097	-3,1747	-3,3616	-1,5476	 2,8258	-3,3163	-2,8528	 0,0000	 2,6973	-3,1740	 2,6644	-3,0513	 3,0447	 2,7097	 1,0877	 2,9579	-3,1893	 2,6834	 4,2813	-3,1849	 3,4674	 3,1937	 3,5309	-3,4156	 3,5937
12.06.2026 12:58:54	-2,7287	 2,4885	 2,8666	 2,6367	 2,7411	 2,8885	-3,0798	 2,7068	-3,1688	-3,3528	-1,5366	 2,8287	-3,3127	-2,8513	 0,0000	 2,6951	-3,1703	 2,6703	-3,0499	 3,0404	 2,7068	 1,0869	 2,9542	-3,1864	 2,6812	 4,3375	-3,1827	 3,4747	 3,1907	 3,5579	-3,4046	 3,6105
12.06.2026 12:58:54	-2,7250	 2,4907	 2,8659	 2,6308	 2,7418	 2,8871	-3,0732	 2,7060	-3,1674	-3,3521	-1,5373	 2,8279	-3,3119	-2,8477	 0,0000	 2,6929	-3,1696	 2,6630	-3,0440	 3,0382	 2,7031	 1,0869	 2,9426	-3,1805	 2,6790	 3,9507	-3,2017	 3,4813	 3,1813	 3,5660	-3,4170	 3,5915
12.06.2026 12:58:54	-2,7301	 2,4900	 2,8571	 2,6272	 2,7403	 2,8754	-3,0739	 2,7024	-3,1667	-3,3521	-1,5410	 2,8243	-3,3127	-2,8469	 0,0000	 2,6929	-3,1776	 2,6586	-3,0396	 3,0360	 2,7009	 1,0855	 2,9426	-3,1776	 2,6768	 3,7448	-3,1951	 3,4930	 3,1959	 3,5740	-3,4061	 3,5915
12.06.2026 12:58:54	-2,7177	 2,4776	 2,8513	 2,6228	 2,7367	 2,8703	-3,0739	 2,6980	-3,1637	-3,3470	-1,5366	 2,8243	-3,3141	-2,8440	 0,0000	 2,6907	-3,1667	 2,6673	-3,0353	 3,0345	 2,7009	 1,0855	 2,9513	-3,1703	 2,6776	 3,7324	-3,1783	 3,5017	 3,1944	 3,5572	-3,3981	 3,5973
12.06.2026 12:58:54	-2,7111	 2,4593	 2,8469	 2,6155	 2,7360	 2,8681	-3,0696	 2,6944	-3,1659	-3,3513	-1,5388	 2,8272	-3,3141	-2,8374	 0,0000	 2,6812	-3,1586	 2,6527	-3,0272	 3,0345	 2,6995	 1,0840	 2,9462	-3,1637	 2,6783	 3,6835	-3,1747	 3,4915	 3,1813	 3,5499	-3,3966	 3,5645
12.06.2026 12:58:54	-2,7177	 2,4710	 2,8374	 2,6155	 2,7257	 2,8630	-3,0681	 2,6914	-3,1594	-3,3440	-1,5293	 2,8199	-3,3083	-2,8345	 0,0000	 2,6849	-3,1696	 2,6520	-3,0287	 3,0323	 2,6987	 1,0855	 2,9433	-3,1615	 2,6754	 3,8397	-3,1448	 3,4805	 3,2075	 3,5594	-3,3586	 3,5389
12.06.2026 12:58:54	-2,7250	 2,4739	 2,8316	 2,6104	 2,7199	 2,8564	-3,0659	 2,6878	-3,1579	-3,3404	-1,5308	 2,8170	-3,2871	-2,8301	 0,0000	 2,6849	-3,1601	 2,6520	-3,0199	 3,0338	 2,6980	 1,0855	 2,9426	-3,1535	 2,6746	 3,7660	-3,1535	 3,4725	 3,2119	 3,5557	-3,3667	 3,5295
12.06.2026 12:58:54	-2,7287	 2,4608	 2,8258	 2,6046	 2,7184	 2,8528	-3,0652	 2,6841	-3,1579	-3,3404	-1,5330	 2,8163	-3,2871	-2,8294	 0,0000	 2,6732	-3,1396	 2,6396	-3,0185	 3,0294	 2,6973	 1,0840	 2,9323	-3,1513	 2,6725	 3,6857	-3,1769	 3,4842	 3,1988	 3,5462	-3,3791	 3,5382
12.06.2026 12:58:54	-2,7294	 2,4630	 2,8206	 2,6024	 2,7163	 2,8462	-3,0637	 2,6819	-3,1521	-3,3353	-1,5308	 2,8163	-3,2937	-2,8294	 0,0000	 2,6725	-3,1382	 2,6462	-3,0221	 3,0250	 2,6936	 1,0848	 2,9367	-3,1499	 2,6703	 3,8696	-3,1732	 3,4740	 3,1791	 3,5404	-3,3667	 3,5426
12.06.2026 12:58:54	-2,7214	 2,4586	 2,8170	 2,5973	 2,7214	 2,8484	-3,0601	 2,6783	-3,1535	-3,3353	-1,5300	 2,8214	-3,2842	-2,8236	 0,0000	 2,6746	-3,1550	 2,6403	-3,0112	 3,0258	 2,6907	 1,0855	 2,9389	-3,1440	 2,6695	 4,0696	-3,1623	 3,4608	 3,1805	 3,5528	-3,3535	 3,5543
12.06.2026 12:58:54	-2,7192	 2,4513	 2,8112	 2,5929	 2,7141	 2,8425	-3,0579	 2,6754	-3,1521	-3,3360	-1,5322	 2,8133	-3,2820	-2,8221	 0,0000	 2,6732	-3,1674	 2,6294	-3,0090	 3,0214	 2,6878	 1,0826	 2,9265	-3,1433	 2,6644	 4,1383	-3,1557	 3,4608	 3,1900	 3,5521	-3,3440	 3,5608
12.06.2026 12:58:54	-2,7192	 2,4425	 2,8068	 2,5871	 2,7090	 2,8374	-3,0557	 2,6725	-3,1477	-3,3346	-1,5468	 2,8112	-3,2820	-2,8192	 0,0000	 2,6834	-3,1396	 2,6338	-3,0039	 3,0185	 2,6841	 1,0826	 2,9207	-3,1404	 2,6615	 3,8236	-3,1433	 3,4302	 3,1886	 3,5280	-3,3375	 3,5316
12.06.2026 12:58:54	-2,7126	 2,4345	 2,8068	 2,5871	 2,7111	 2,8411	-3,0499	 2,6710	-3,1448	-3,3273	-1,5293	 2,8119	-3,2791	-2,8148	 0,0000	 2,6673	-3,1323	 2,6396	-2,9944	 3,0177	 2,6827	 1,0826	 2,9243	-3,1338	 2,6608	 3,7762	-3,1192	 3,3973	 3,2039	 3,4930	-3,3207	 3,4915
12.06.2026 12:58:54	-2,7126	 2,4447	 2,8082	 2,5863	 2,7075	 2,8374	-3,0469	 2,6703	-3,1418	-3,3214	-1,5176	 2,8119	-3,2652	-2,8126	 0,0000	 2,6454	-3,1316	 2,6476	-2,9907	 3,0155	 2,6798	 1,0782	 2,9338	-3,1280	 2,6615	 3,8550	-3,1199	 3,3776	 3,1929	 3,4776	-3,3119	 3,4762
12.06.2026 12:58:54	-2,7097	 2,4513	 2,8039	 2,5841	 2,7053	 2,8345	-3,0455	 2,6681	-3,1360	-3,3141	-1,5191	 2,8097	-3,2652	-2,8097	 0,0000	 2,6549	-3,1148	 2,6462	-2,9885	 3,0134	 2,6776	 1,0789	 2,9301	-3,1236	 2,6593	 3,8112	-3,1404	 3,3915	 3,1791	 3,4951	-3,3389	 3,4864
12.06.2026 12:58:54	-2,7075	 2,4432	 2,7922	 2,5827	 2,6995	 2,8265	-3,0447	 2,6652	-3,1323	-3,3141	-1,5111	 2,8053	-3,2689	-2,8082	 0,0000	 2,6549	-3,1199	 2,6418	-2,9878	 3,0090	 2,6746	 1,0782	 2,9258	-3,1229	 2,6549	 4,1105	-3,1243	 3,3944	 3,1783	 3,4849	-3,3492	 3,4696
12.06.2026 12:58:54	-2,7068	 2,4396	 2,7878	 2,5768	 2,6958	 2,8228	-3,0433	 2,6608	-3,1309	-3,3127	-1,5140	 2,8031	-3,2645	-2,8060	 0,0000	 2,6535	-3,1112	 2,6433	-2,9856	 3,0053	 2,6717	 1,0767	 2,9214	-3,1214	 2,6513	 4,0864	-3,1053	 3,3762	 3,1703	 3,4696	-3,3360	 3,4630
12.06.2026 12:58:54	-2,7082	 2,4491	 2,7878	 2,5783	 2,6907	 2,8192	-3,0389	 2,6579	-3,1243	-3,3024	-1,5081	 2,7966	-3,2652	-2,8031	 0,0000	 2,6513	-3,1134	 2,6287	-2,9871	 3,0009	 2,6673	 1,0745	 2,9170	-3,1207	 2,6462	 4,0784	-3,1134	 3,3783	 3,1681	 3,4630	-3,3375	 3,4630
12.06.2026 12:58:54	-2,7097	 2,4462	 2,7849	 2,5798	 2,6856	 2,8155	-3,0360	 2,6557	-3,1192	-3,2981	-1,5030	 2,7944	-3,2667	-2,7987	 0,0000	 2,6476	-3,1294	 2,6214	-2,9864	 2,9980	 2,6630	 1,0716	 2,9097	-3,1199	 2,6418	 4,5522	-3,1265	 3,3659	 3,1637	 3,4528	-3,3462	 3,4579
12.06.2026 12:58:54	-2,6965	 2,4381	 2,7834	 2,5754	 2,6885	 2,8199	-3,0316	 2,6535	-3,1163	-3,2944	-1,5052	 2,7944	-3,2645	-2,7944	 0,0000	 2,6476	-3,1265	 2,6257	-2,9798	 2,9973	 2,6608	 1,0709	 2,9082	-3,1177	 2,6389	 4,8069	-3,1243	 3,3492	 3,1615	 3,4638	-3,3492	 3,4827
12.06.2026 12:58:54	-2,6849	 2,4462	 2,7812	 2,5739	 2,6936	 2,8199	-3,0272	 2,6520	-3,1134	-3,2922	-1,4986	 2,7914	-3,2637	-2,7936	 0,0000	 2,6440	-3,1177	 2,6214	-2,9776	 2,9936	 2,6593	 1,0702	 2,9090	-3,1156	 2,6367	 4,8084	-3,1170	 3,3557	 3,1637	 3,4674	-3,3389	 3,5024
12.06.2026 12:58:54	-2,6739	 2,4476	 2,7783	 2,5703	 2,6914	 2,8163	-3,0228	 2,6506	-3,1097	-3,2900	-1,5001	 2,7849	-3,2696	-2,7922	 0,0000	 2,6454	-3,1031	 2,6257	-2,9747	 2,9878	 2,6571	 1,0716	 2,9039	-3,1134	 2,6316	 4,6449	-3,1061	 3,3382	 3,1608	 3,4287	-3,3470	 3,4674
12.06.2026 12:58:54	-2,6703	 2,4469	 2,7739	 2,5666	 2,6907	 2,8133	-3,0221	 2,6476	-3,1053	-3,2878	-1,4950	 2,7893	-3,2572	-2,7907	 0,0000	 2,6440	-3,0944	 2,6323	-2,9718	 2,9827	 2,6549	 1,0709	 2,9097	-3,1112	 2,6308	 4,8493	-3,1163	 3,3273	 3,1389	 3,4221	-3,3689	 3,4659
12.06.2026 12:58:54	-2,6805	 2,4338	 2,7717	 2,5695	 2,6863	 2,8075	-3,0207	 2,6462	-3,1024	-3,2849	-1,4921	 2,7878	-3,2477	-2,7893	 0,0000	 2,6381	-3,0922	 2,6221	-2,9659	 2,9805	 2,6520	 1,0702	 2,9024	-3,1083	 2,6287	 5,0398	-3,1046	 3,3324	 3,1382	 3,4426	-3,3411	 3,4805
12.06.2026 12:58:54	-2,6812	 2,4206	 2,7703	 2,5644	 2,6783	 2,8024	-3,0185	 2,6440	-3,0995	-3,2805	-1,4957	 2,7747	-3,2440	-2,7885	 0,0000	 2,6330	-3,0900	 2,6162	-2,9645	 2,9776	 2,6476	 1,0672	 2,8995	-3,1090	 2,6221	 4,5310	-3,0155	 3,2630	 3,2148	 3,3740	-3,2681	 3,3718
12.06.2026 12:58:54	-2,6790	 2,4221	 2,7666	 2,5615	 2,6761	 2,7987	-3,0177	 2,6418	-3,0951	-3,2762	-1,4943	 2,7703	-3,2418	-2,7871	 0,0000	 2,6301	-3,0893	 2,6068	-2,9718	 2,9718	 2,6440	 1,0643	 2,8827	-3,1112	 2,6184	 4,6288	-2,9988	 3,2659	 3,2375	 3,3659	-3,2521	 3,3601
12.06.2026 12:58:54	-2,6819	 2,4155	 2,7593	 2,5571	 2,6673	 2,7951	-3,0141	 2,6381	-3,0944	-3,2776	-1,4994	 2,7659	-3,2411	-2,7834	 0,0000	 2,6279	-3,0907	 2,6009	-2,9688	 2,9674	 2,6403	 1,0658	 2,8717	-3,1083	 2,6155	 4,7325	-3,0258	 3,3170	 3,2068	 3,3981	-3,2827	 3,4134
12.06.2026 12:58:54	-2,6834	 2,4228	 2,7506	 2,5506	 2,6615	 2,7907	-3,0119	 2,6345	-3,0922	-3,2740	-1,4899	 2,7622	-3,2360	-2,7790	 0,0000	 2,6250	-3,0922	 2,6046	-2,9688	 2,9645	 2,6374	 1,0621	 2,8929	-3,1068	 2,6141	 4,7091	-3,0316	 3,3273	 3,1893	 3,4024	-3,3061	 3,4105
12.06.2026 12:58:54	-2,6871	 2,4272	 2,7484	 2,5513	 2,6557	 2,7863	-3,0119	 2,6316	-3,0871	-3,2659	-1,4870	 2,7601	-3,2353	-2,7776	 0,0000	 2,6272	-3,0951	 2,6002	-2,9703	 2,9608	 2,6352	 1,0629	 2,8856	-3,1053	 2,6119	 5,1055	-3,0506	 3,3426	 3,1645	 3,4346	-3,3148	 3,4243
12.06.2026 12:58:54	-2,6790	 2,4199	 2,7455	 2,5498	 2,6600	 2,7834	-3,0097	 2,6287	-3,0827	-3,2608	-1,4884	 2,7593	-3,2280	-2,7783	 0,0000	 2,6228	-3,0849	 2,6017	-2,9645	 2,9564	 2,6330	 1,0636	 2,8805	-3,1024	 2,6104	 5,0894	-3,0732	 3,3492	 3,1331	 3,4360	-3,3389	 3,4528
12.06.2026 12:58:54	-2,6717	 2,4243	 2,7425	 2,5520	 2,6549	 2,7805	-3,0068	 2,6265	-3,0761	-3,2528	-1,4877	 2,7549	-3,2338	-2,7747	 0,0000	 2,6192	-3,0623	 2,5995	-2,9652	 2,9528	 2,6301	 1,0614	 2,8827	-3,0988	 2,6082	 5,0726	-3,1024	 3,3608	 3,1039	 3,4353	-3,3579	 3,4718
12.06.2026 12:58:54	-2,6637	 2,4184	 2,7418	 2,5476	 2,6491	 2,7812	-3,0024	 2,6228	-3,0776	-3,2572	-1,4848	 2,7557	-3,2367	-2,7703	 0,0000	 2,6148	-3,0681	 2,5951	-2,9572	 2,9520	 2,6294	 1,0621	 2,8761	-3,0937	 2,6068	 4,7244	-3,1148	 3,3630	 3,0958	 3,4309	-3,3550	 3,4426
12.06.2026 12:58:54	-2,6557	 2,4192	 2,7382	 2,5396	 2,6557	 2,7783	-2,9995	 2,6199	-3,0769	-3,2579	-1,4804	 2,7564	-3,2309	-2,7681	 0,0000	 2,6111	-3,0688	 2,5944	-2,9528	 2,9499	 2,6272	 1,0614	 2,8747	-3,0907	 2,6068	 4,5397	-3,1119	 3,3535	 3,1097	 3,4192	-3,3448	 3,4338
12.06.2026 12:58:54	-2,6564	 2,4097	 2,7338	 2,5338	 2,6513	 2,7739	-2,9988	 2,6155	-3,0739	-3,2572	-1,4848	 2,7506	-3,2236	-2,7652	 0,0000	 2,6119	-3,0586	 2,5892	-2,9462	 2,9491	 2,6250	 1,0607	 2,8710	-3,0878	 2,6024	 4,6741	-3,1134	 3,3309	 3,1068	 3,4061	-3,3455	 3,4243
12.06.2026 12:58:54	-2,6579	 2,3973	 2,7301	 2,5345	 2,6520	 2,7703	-2,9966	 2,6126	-3,0696	-3,2557	-1,4789	 2,7498	-3,2185	-2,7622	 0,0000	 2,6090	-3,0776	 2,5819	-2,9396	 2,9477	 2,6228	 1,0592	 2,8652	-3,0849	 2,5980	 4,4251	-3,1148	 3,3258	 3,0849	 3,3995	-3,3623	 3,4068
12.06.2026 12:58:54	-2,6476	 2,4140	 2,7330	 2,5425	 2,6454	 2,7739	-2,9915	 2,6141	-3,0601	-3,2411	-1,4760	 2,7447	-3,2185	-2,7593	 0,0000	 2,6162	-3,0783	 2,5849	-2,9447	 2,9426	 2,6184	 1,0599	 2,8659	-3,0856	 2,5951	 4,5595	-3,0907	 3,3068	 3,0849	 3,3915	-3,3557	 3,4017
12.06.2026 12:58:54	-2,6433	 2,4133	 2,7287	 2,5352	 2,6425	 2,7688	-2,9834	 2,6097	-3,0615	-3,2360	-1,4680	 2,7469	-3,2148	-2,7542	 0,0000	 2,6119	-3,0637	 2,5900	-2,9396	 2,9426	 2,6177	 1,0599	 2,8644	-3,0805	 2,5936	 4,4361	-3,0666	 3,2966	 3,1031	 3,3849	-3,3397	 3,3929
12.06.2026 12:58:54	-2,6549	 2,4075	 2,7206	 2,5294	 2,6374	 2,7615	-2,9842	 2,6060	-3,0601	-3,2324	-1,4658	 2,7476	-3,2141	-2,7498	 0,0000	 2,6024	-3,0586	 2,5768	-2,9367	 2,9426	 2,6162	 1,0585	 2,8571	-3,0769	 2,5922	 4,2682	-3,0637	 3,2835	 3,1002	 3,3740	-3,3367	 3,3747
12.06.2026 12:58:54	-2,6549	 2,4016	 2,7214	 2,5294	 2,6330	 2,7674	-2,9864	 2,6053	-3,0542	-3,2302	-1,4695	 2,7360	-3,2090	-2,7476	 0,0000	 2,6002	-3,0484	 2,5761	-2,9374	 2,9389	 2,6148	 1,0585	 2,8557	-3,0761	 2,5885	 4,5332	-3,0586	 3,2689	 3,0973	 3,3681	-3,3353	 3,3813
12.06.2026 12:58:54	-2,6498	 2,4002	 2,7163	 2,5250	 2,6330	 2,7571	-2,9856	 2,6017	-3,0528	-3,2287	-1,4658	 2,7367	-3,2002	-2,7484	 0,0000	 2,5951	-3,0440	 2,5732	-2,9345	 2,9338	 2,6119	 1,0585	 2,8462	-3,0732	 2,5878	 4,7500	-3,0447	 3,2667	 3,1104	 3,3652	-3,3156	 3,4024
12.06.2026 12:58:54	-2,6389	 2,4038	 2,7068	 2,5228	 2,6308	 2,7506	-2,9842	 2,5987	-3,0499	-3,2258	-1,4643	 2,7367	-3,2053	-2,7469	 0,0000	 2,5951	-3,0396	 2,5630	-2,9331	 2,9323	 2,6090	 1,0577	 2,8418	-3,0703	 2,5834	 4,5923	-3,0542	 3,2521	 3,1017	 3,3572	-3,3068	 3,3922
12.06.2026 12:58:54	-2,6221	 2,3973	 2,7038	 2,5206	 2,6367	 2,7535	-2,9798	 2,5951	-3,0447	-3,2214	-1,4636	 2,7309	-3,2178	-2,7418	 0,0000	 2,5936	-3,0367	 2,5564	-2,9265	 2,9294	 2,6068	 1,0548	 2,8440	-3,0666	 2,5798	 4,3200	-3,0688	 3,2535	 3,0980	 3,3630	-3,3127	 3,3732
12.06.2026 12:58:54	-2,6279	 2,3994	 2,7009	 2,5170	 2,6338	 2,7513	-2,9776	 2,5907	-3,0440	-3,2214	-1,4658	 2,7294	-3,2185	-2,7352	 0,0000	 2,5914	-3,0374	 2,5571	-2,9228	 2,9294	 2,6038	 1,0534	 2,8425	-3,0601	 2,5783	 4,3222	-3,0528	 3,2272	 3,1017	 3,3236	-3,2981	 3,3484
12.06.2026 12:58:54	-2,6396	 2,3987	 2,6958	 2,5126	 2,6279	 2,7469	-2,9754	 2,5892	-3,0433	-3,2214	-1,4680	 2,7236	-3,1995	-2,7352	 0,0000	 2,5885	-3,0323	 2,5637	-2,9199	 2,9272	 2,6024	 1,0534	 2,8425	-3,0550	 2,5746	 4,1594	-3,0623	 3,2010	 3,0951	 3,2973	-3,2937	 3,3287
12.06.2026 12:58:54	-2,6316	 2,3929	 2,6958	 2,5104	 2,6272	 2,7462	-2,9718	 2,5863	-3,0389	-3,2126	-1,4673	 2,7228	-3,1813	-2,7345	 0,0000	 2,5841	-3,0309	 2,5557	-2,9141	 2,9207	 2,5995	 1,0519	 2,8345	-3,0542	 2,5725	 4,1894	-3,0739	 3,2002	 3,0885	 3,3039	-3,3148	 3,3185
12.06.2026 12:58:54	-2,6294	 2,3921	 2,6973	 2,5060	 2,6214	 2,7433	-2,9688	 2,5827	-3,0374	-3,2105	-1,4614	 2,7214	-3,1834	-2,7323	 0,0000	 2,5827	-3,0280	 2,5593	-2,9126	 2,9192	 2,5987	 1,0526	 2,8352	-3,0513	 2,5717	 4,1974	-3,0834	 3,2032	 3,0710	 3,3002	-3,3433	 3,3265
12.06.2026 12:58:54	-2,6250	 2,3827	 2,6944	 2,5053	 2,6155	 2,7403	-2,9666	 2,5812	-3,0323	-3,2083	-1,4570	 2,7119	-3,1988	-2,7279	 0,0000	 2,5790	-3,0250	 2,5506	-2,9141	 2,9170	 2,5973	 1,0519	 2,8316	-3,0469	 2,5695	 3,9550	-3,0973	 3,2141	 3,0703	 3,2988	-3,3419	 3,3338
12.06.2026 12:58:54	-2,6155	 2,3754	 2,6863	 2,4995	 2,6177	 2,7389	-2,9659	 2,5776	-3,0345	-3,2126	-1,4592	 2,7163	-3,1973	-2,7257	 0,0000	 2,5746	-3,0360	 2,5403	-2,9104	 2,9148	 2,5929	 1,0497	 2,8279	-3,0426	 2,5673	 3,9689	-3,0842	 3,2090	 3,0893	 3,2769	-3,3280	 3,3083
12.06.2026 12:58:54	-2,6126	 2,3717	 2,6812	 2,4958	 2,6177	 2,7345	-2,9637	 2,5746	-3,0316	-3,2075	-1,4563	 2,7133	-3,1813	-2,7279	 0,0000	 2,5761	-3,0338	 2,5418	-2,9104	 2,9119	 2,5914	 1,0512	 2,8287	-3,0389	 2,5652	 4,1828	-3,0893	 3,2097	 3,0688	 3,2791	-3,3404	 3,3046
12.06.2026 12:58:54	-2,6221	 2,3600	 2,6746	 2,4929	 2,6038	 2,7265	-2,9623	 2,5710	-3,0287	-3,2017	-1,4519	 2,6995	-3,1754	-2,7243	 0,0000	 2,5746	-3,0126	 2,5484	-2,9126	 2,9068	 2,5892	 1,0512	 2,8199	-3,0374	 2,5600	 4,2032	-3,0958	 3,2156	 3,0484	 3,2995	-3,3477	 3,3207
12.06.2026 12:58:54	-2,6287	 2,3520	 2,6695	 2,4849	 2,5987	 2,7257	-2,9586	 2,5673	-3,0316	-3,2090	-1,4600	 2,6995	-3,1615	-2,7192	 0,0000	 2,5659	-3,0221	 2,5381	-2,9053	 2,9061	 2,5878	 1,0497	 2,8126	-3,0338	 2,5586	 4,2441	-3,1170	 3,2207	 3,0316	 3,3046	-3,3608	 3,3265
12.06.2026 12:58:54	-2,6119	 2,3608	 2,6688	 2,4863	 2,6031	 2,7265	-2,9564	 2,5659	-3,0258	-3,2032	-1,4592	 2,6995	-3,1608	-2,7177	 0,0000	 2,5622	-3,0389	 2,5381	-2,8980	 2,9046	 2,5856	 1,0483	 2,8170	-3,0280	 2,5586	 4,0623	-3,1462	 3,2068	 3,0009	 3,3010	-3,3813	 3,3163
12.06.2026 12:58:54	-2,6082	 2,3739	 2,6666	 2,4805	 2,6031	 2,7214	-2,9557	 2,5622	-3,0228	-3,1966	-1,4578	 2,6965	-3,1667	-2,7163	 0,0000	 2,5630	-3,0126	 2,5418	-2,8951	 2,9002	 2,5834	 1,0483	 2,8148	-3,0265	 2,5542	 3,8054	-3,1433	 3,1791	 2,9922	 3,2849	-3,3630	 3,2959
12.06.2026 12:58:54	-2,6126	 2,3681	 2,6622	 2,4783	 2,5973	 2,7155	-2,9542	 2,5593	-3,0228	-3,1980	-1,4592	 2,6929	-3,1667	-2,7133	 0,0000	 2,5593	-2,9995	 2,5374	-2,8907	 2,8980	 2,5812	 1,0453	 2,8185	-3,0236	 2,5527	 3,7886	-3,1199	 3,1499	 2,9864	 3,2521	-3,3455	 3,2725
12.06.2026 12:58:54	-2,6148	 2,3586	 2,6564	 2,4761	 2,5922	 2,7104	-2,9535	 2,5564	-3,0199	-3,1944	-1,4519	 2,6885	-3,1652	-2,7097	 0,0000	 2,5557	-3,0207	 2,5491	-2,8900	 2,8944	 2,5783	 1,0446	 2,8214	-3,0192	 2,5506	 3,8470	-3,0885	 3,1426	 3,0082	 3,2433	-3,3346	 3,2601
12.06.2026 12:58:54	-2,6177	 2,3542	 2,6549	 2,4724	 2,5885	 2,7090	-2,9484	 2,5535	-3,0177	-3,1886	-1,4490	 2,6805	-3,1630	-2,7068	 0,0000	 2,5557	-3,0287	 2,5184	-2,8951	 2,8893	 2,5746	 1,0417	 2,7980	-3,0214	 2,5433	 4,0105	-3,0608	 3,1491	 3,0309	 3,2521	-3,3097	 3,2659
12.06.2026 12:58:54	-2,6075	 2,3593	 2,6520	 2,4761	 2,5849	 2,7053	-2,9455	 2,5520	-3,0119	-3,1820	-1,4497	 2,6746	-3,1615	-2,7068	 0,0000	 2,5527	-3,0068	 2,5162	-2,8958	 2,8849	 2,5732	 1,0424	 2,7966	-3,0207	 2,5425	 3,7769	-3,0440	 3,1265	 3,0265	 3,2506	-3,2966	 3,2528
12.06.2026 12:58:54	-2,6009	 2,3629	 2,6462	 2,4717	 2,5849	 2,7024	-2,9440	 2,5484	-3,0075	-3,1754	-1,4512	 2,6761	-3,1579	-2,7068	 0,0000	 2,5513	-2,9944	 2,5243	-2,8944	 2,8827	 2,5717	 1,0446	 2,8017	-3,0155	 2,5433	 3,7236	-3,0433	 3,1455	 3,0316	 3,2835	-3,2937	 3,2506
12.06.2026 12:58:54	-2,6009	 2,3505	 2,6447	 2,4688	 2,5798	 2,7017	-2,9411	 2,5469	-3,0039	-3,1776	-1,4490	 2,6710	-3,1623	-2,7017	 0,0000	 2,5476	-2,9988	 2,5082	-2,8936	 2,8820	 2,5688	 1,0417	 2,7944	-3,0148	 2,5396	 4,2324	-3,0506	 3,1696	 3,0163	 3,2966	-3,3046	 3,2747
12.06.2026 12:58:54	-2,6038	 2,3352	 2,6381	 2,4644	 2,5732	 2,6958	-2,9404	 2,5433	-3,0031	-3,1776	-1,4468	 2,6681	-3,1586	-2,6965	 0,0000	 2,5433	-2,9944	 2,5082	-2,8878	 2,8790	 2,5666	 1,0402	 2,7893	-3,0126	 2,5360	 4,3792	-3,0477	 3,1959	 2,9988	 3,3170	-3,2981	 3,3170
12.06.2026 12:58:54	-2,5995	 2,3316	 2,6403	 2,4637	 2,5710	 2,6951	-2,9353	 2,5418	-3,0017	-3,1725	-1,4417	 2,6652	-3,1645	-2,6929	 0,0000	 2,5418	-2,9871	 2,5184	-2,8856	 2,8754	 2,5644	 1,0410	 2,7936	-3,0097	 2,5345	 4,2288	-3,0250	 3,2039	 2,9966	 3,3440	-3,2827	 3,3389
12.06.2026 12:58:54	-2,5987	 2,3483	 2,6425	 2,4681	 2,5703	 2,6951	-2,9272	 2,5418	-2,9915	-3,1637	-1,4366	 2,6615	-3,1579	-2,6892	 0,0000	 2,5454	-2,9812	 2,5170	-2,8820	 2,8732	 2,5608	 1,0417	 2,7929	-3,0053	 2,5316	 3,9966	-3,0090	 3,1937	 3,0134	 3,3397	-3,2506	 3,3214
12.06.2026 12:58:54	-2,5944	 2,3688	 2,6381	 2,4681	 2,5717	 2,6951	-2,9250	 2,5389	-2,9834	-3,1499	-1,4278	 2,6622	-3,1411	-2,6849	 0,0000	 2,5484	-2,9798	 2,5162	-2,8710	 2,8739	 2,5593	 1,0417	 2,7922	-2,9995	 2,5301	 3,7893	-3,0250	 3,1886	 3,0024	 3,3346	-3,2521	 3,3010
12.06.2026 12:58:54	-2,5783	 2,3586	 2,6425	 2,4673	 2,5732	 2,6980	-2,9177	 2,5374	-2,9805	-3,1506	-1,4300	 2,6593	-3,1433	-2,6819	 0,0000	 2,5564	-2,9681	 2,5148	-2,8688	 2,8696	 2,5571	 1,0439	 2,7914	-2,9973	 2,5287	 3,6747	-3,0331	 3,1615	 2,9929	 3,3054	-3,2623	 3,2747
12.06.2026 12:58:54	-2,5812	 2,3432	 2,6352	 2,4615	 2,5703	 2,6863	-2,9126	 2,5338	-2,9783	-3,1535	-1,4330	 2,6564	-3,1411	-2,6812	 0,0000	 2,5557	-2,9593	 2,5068	-2,8681	 2,8659	 2,5535	 1,0453	 2,7805	-2,9980	 2,5265	 3,6506	-3,0250	 3,1484	 3,0097	 3,2966	-3,2440	 3,2564
12.06.2026 12:58:54	-2,5790	 2,3469	 2,6338	 2,4644	 2,5688	 2,6841	-2,9177	 2,5323	-2,9732	-3,1426	-1,4162	 2,6571	-3,1331	-2,6783	 0,0000	 2,5330	-2,9586	 2,5119	-2,8637	 2,8652	 2,5506	 1,0417	 2,7834	-2,9929	 2,5257	 3,7674	-2,9995	 3,1309	 3,0199	 3,2929	-3,2331	 3,2404
12.06.2026 12:58:54	-2,5717	 2,3425	 2,6360	 2,4681	 2,5673	 2,6914	-2,9148	 2,5308	-2,9688	-3,1389	-1,4184	 2,6549	-3,1243	-2,6761	 0,0000	 2,5301	-2,9579	 2,5155	-2,8630	 2,8623	 2,5476	 1,0410	 2,7929	-2,9907	 2,5235	 3,5433	-2,9915	 3,1119	 3,0455	 3,2659	-3,2178	 3,2287
12.06.2026 12:58:54	-2,5739	 2,3403	 2,6308	 2,4637	 2,5600	 2,6834	-2,9075	 2,5272	-2,9674	-3,1382	-1,4191	 2,6506	-3,1214	-2,6732	 0,0000	 2,5338	-2,9630	 2,5133	-2,8623	 2,8579	 2,5454	 1,0402	 2,7900	-2,9893	 2,5214	 3,5798	-3,0061	 3,0958	 3,0411	 3,2440	-3,2185	 3,2163
12.06.2026 12:58:54	-2,5754	 2,3410	 2,6265	 2,4593	 2,5557	 2,6732	-2,9061	 2,5250	-2,9637	-3,1323	-1,4227	 2,6454	-3,1280	-2,6703	 0,0000	 2,5345	-2,9601	 2,5075	-2,8630	 2,8542	 2,5418	 1,0402	 2,7820	-2,9893	 2,5184	 3,9937	-3,0075	 3,1119	 3,0323	 3,2426	-3,2214	 3,2105
12.06.2026 12:58:54	-2,5739	 2,3367	 2,6235	 2,4571	 2,5586	 2,6761	-2,9068	 2,5206	-2,9601	-3,1287	-1,4257	 2,6454	-3,1250	-2,6695	 0,0000	 2,5345	-2,9535	 2,5031	-2,8593	 2,8513	 2,5396	 1,0410	 2,7798	-2,9871	 2,5177	 4,1492	-3,0192	 3,1389	 3,0126	 3,2674	-3,2309	 3,2477
12.06.2026 12:58:54	-2,5608	 2,3323	 2,6214	 2,4527	 2,5571	 2,6790	-2,9075	 2,5177	-2,9593	-3,1309	-1,4132	 2,6469	-3,1148	-2,6644	 0,0000	 2,5279	-2,9506	 2,5016	-2,8498	 2,8498	 2,5381	 1,0395	 2,7776	-2,9805	 2,5177	 4,0492	-3,0112	 3,1455	 2,9849	 3,2725	-3,2418	 3,2586
12.06.2026 12:58:54	-2,5586	 2,3294	 2,6221	 2,4520	 2,5579	 2,6754	-2,9024	 2,5148	-2,9564	-3,1258	-1,4096	 2,6454	-3,1148	-2,6615	 0,0000	 2,5265	-2,9447	 2,5024	-2,8462	 2,8477	 2,5360	 1,0402	 2,7783	-2,9769	 2,5162	 3,9317	-3,0053	 3,1477	 2,9812	 3,2689	-3,2470	 3,2309
12.06.2026 12:58:54	-2,5608	 2,3294	 2,6250	 2,4549	 2,5586	 2,6768	-2,8966	 2,5141	-2,9513	-3,1192	-1,4052	 2,6454	-3,1075	-2,6593	 0,0000	 2,5250	-2,9411	 2,5038	-2,8389	 2,8455	 2,5345	 1,0402	 2,7790	-2,9718	 2,5148	 3,7331	-3,0323	 3,1579	 2,9615	 3,2798	-3,2579	 3,2440
12.06.2026 12:58:54	-2,5527	 2,3374	 2,6170	 2,4549	 2,5586	 2,6761	-2,8922	 2,5126	-2,9469	-3,1148	-1,3994	 2,6484	-3,1039	-2,6549	 0,0000	 2,5235	-2,9528	 2,5009	-2,8323	 2,8440	 2,5330	 1,0402	 2,7768	-2,9681	 2,5148	 3,4178	-3,0228	 3,1637	 2,9747	 3,2637	-3,2338	 3,2440
12.06.2026 12:58:54	-2,5425	 2,3257	 2,6148	 2,4462	 2,5644	 2,6732	-2,8900	 2,5082	-2,9491	-3,1177	-1,4052	 2,6454	-3,1214	-2,6535	 0,0000	 2,5199	-2,9615	 2,4907	-2,8338	 2,8411	 2,5294	 1,0388	 2,7688	-2,9666	 2,5111	 3,5864	-3,0353	 3,1966	 2,9462	 3,2915	-3,2513	 3,2616
12.06.2026 12:58:54	-2,5433	 2,3016	 2,6046	 2,4243	 2,5549	 2,6637	-2,8915	 2,5024	-2,9601	-3,1323	-1,4184	 2,6403	-3,1221	-2,6520	 0,0000	 2,5155	-2,9433	 2,4863	-2,8301	 2,8404	 2,5279	 1,0380	 2,7630	-2,9623	 2,5104	 3,8485	-3,0995	 3,2572	 2,8710	 3,3623	-3,3178	 3,3273
12.06.2026 12:58:54	-2,5644	 2,2863	 2,5812	 2,4002	 2,5440	 2,6506	-2,8966	 2,4943	-2,9681	-3,1448	-1,4235	 2,6381	-3,1075	-2,6498	 0,0000	 2,5097	-2,9382	 2,4922	-2,8258	 2,8382	 2,5272	 1,0388	 2,7652	-2,9579	 2,5089	 3,6740	-3,0885	 3,2513	 2,8798	 3,3674	-3,3127	 3,3273
12.06.2026 12:58:54	-2,5761	 2,2856	 2,5761	 2,4031	 2,5411	 2,6484	-2,8951	 2,4914	-2,9593	-3,1294	-1,4111	 2,6396	-3,0871	-2,6484	 0,0000	 2,5060	-2,9323	 2,4914	-2,8221	 2,8360	 2,5257	 1,0380	 2,7644	-2,9542	 2,5068	 3,7820	-3,0696	 3,2360	 2,8973	 3,3535	-3,2944	 3,3156
12.06.2026 12:58:54	-2,5608	 2,3162	 2,5856	 2,4418	 2,5396	 2,6498	-2,8885	 2,4965	-2,9309	-3,0929	-1,3943	 2,6389	-3,0805	-2,6454	 0,0000	 2,5089	-2,9148	 2,4827	-2,8236	 2,8316	 2,5206	 1,0366	 2,7601	-2,9557	 2,5016	 4,1258	-3,0513	 3,2141	 2,9185	 3,3280	-3,2710	 3,2871
12.06.2026 12:58:54	-2,5360	 2,3491	 2,6119	 2,4732	 2,5425	 2,6549	-2,8769	 2,5009	-2,9104	-3,0703	-1,3782	 2,6360	-3,0827	-2,6454	 0,0000	 2,5133	-2,9075	 2,4827	-2,8250	 2,8265	 2,5155	 1,0337	 2,7549	-2,9572	 2,4973	 4,2704	-3,0221	 3,1776	 2,9338	 3,3017	-3,2470	 3,2630
12.06.2026 12:58:54	-2,5250	 2,3527	 2,6323	 2,4797	 2,5403	 2,6615	-2,8674	 2,5024	-2,9061	-3,0681	-1,3826	 2,6345	-3,0820	-2,6454	 0,0000	 2,5119	-2,9061	 2,4849	-2,8214	 2,8221	 2,5119	 1,0315	 2,7520	-2,9542	 2,4936	 4,3427	-2,9944	 3,1564	 2,9528	 3,2776	-3,2243	 3,2528
12.06.2026 12:58:54	-2,5381	 2,3396	 2,6214	 2,4703	 2,5279	 2,6498	-2,8688	 2,4995	-2,9068	-3,0703	-1,3833	 2,6257	-3,0885	-2,6396	 0,0000	 2,5075	-2,9177	 2,4746	-2,8177	 2,8192	 2,5097	 1,0300	 2,7425	-2,9513	 2,4892	 4,1813	-2,9944	 3,1645	 2,9564	 3,2776	-3,2126	 3,2543
12.06.2026 12:58:54	-2,5527	 2,3184	 2,5973	 2,4476	 2,5199	 2,6316	-2,8747	 2,4922	-2,9155	-3,0805	-1,3877	 2,6257	-3,0864	-2,6352	 0,0000	 2,5038	-2,9243	 2,4688	-2,8112	 2,8192	 2,5089	 1,0300	 2,7403	-2,9440	 2,4885	 3,9412	-2,9783	 3,1623	 2,9506	 3,2820	-3,1922	 3,2506
12.06.2026 12:58:54	-2,5535	 2,2943	 2,5885	 2,4367	 2,5192	 2,6301	-2,8732	 2,4885	-2,9177	-3,0929	-1,3986	 2,6265	-3,0798	-2,6338	 0,0000	 2,4987	-2,9426	 2,4695	-2,8068	 2,8177	 2,5068	 1,0271	 2,7411	-2,9404	 2,4856	 3,7645	-3,0002	 3,1973	 2,9236	 3,3083	-3,2199	 3,2762
12.06.2026 12:58:54	-2,5484	 2,2980	 2,5958	 2,4432	 2,5162	 2,6323	-2,8674	 2,4878	-2,9126	-3,0856	-1,3935	 2,6228	-3,0820	-2,6301	 0,0000	 2,4987	-2,9360	 2,4651	-2,8075	 2,8155	 2,5024	 1,0249	 2,7360	-2,9389	 2,4812	 3,7879	-3,0528	 3,2462	 2,8674	 3,3448	-3,2696	 3,3185
12.06.2026 12:58:54	-2,5454	 2,3089	 2,6017	 2,4513	 2,5162	 2,6301	-2,8615	 2,4870	-2,9068	-3,0747	-1,3965	 2,6235	-3,0812	-2,6279	 0,0000	 2,4885	-2,9053	 2,4535	-2,8075	 2,8126	 2,4980	 1,0220	 2,7272	-2,9360	 2,4776	 3,8959	-2,9944	 3,1907	 2,9002	 3,2944	-3,2170	 3,2652
12.06.2026 12:58:54	-2,5469	 2,3118	 2,6031	 2,4535	 2,5104	 2,6272	-2,8579	 2,4863	-2,9017	-3,0681	-1,3862	 2,6177	-3,0718	-2,6250	 0,0000	 2,4819	-2,8988	 2,4586	-2,8039	 2,8112	 2,4973	 1,0191	 2,7257	-2,9338	 2,4732	 3,8039	-2,9791	 3,1608	 2,9097	 3,2667	-3,2068	 3,2375
12.06.2026 12:58:54	-2,5535	 2,2929	 2,5944	 2,4425	 2,5024	 2,6199	-2,8586	 2,4819	-2,9082	-3,0747	-1,3935	 2,6141	-3,0703	-2,6250	 0,0000	 2,4783	-2,8988	 2,4557	-2,8046	 2,8082	 2,4936	 1,0176	 2,7236	-2,9294	 2,4710	 4,0390	-2,9542	 3,1389	 2,9236	 3,2418	-3,2017	 3,1959
12.06.2026 12:58:54	-2,5593	 2,2753	 2,5929	 2,4432	 2,4965	 2,6148	-2,8571	 2,4783	-2,9046	-3,0776	-1,4089	 2,6111	-3,0747	-2,6235	 0,0000	 2,4732	-2,9068	 2,4389	-2,8039	 2,8039	 2,4900	 1,0147	 2,7141	-2,9294	 2,4659	 4,4711	-2,9090	 3,0944	 2,9630	 3,1988	-3,1637	 3,1396
12.06.2026 12:58:54	-2,5652	 2,2819	 2,5907	 2,4498	 2,4900	 2,6082	-2,8571	 2,4776	-2,8936	-3,0681	-1,3957	 2,6053	-3,0776	-2,6221	 0,0000	 2,4754	-2,9031	 2,4432	-2,8024	 2,8024	 2,4870	 1,0147	 2,7097	-2,9280	 2,4637	 4,5770	-2,8915	 3,0703	 2,9747	 3,1725	-3,1367	 3,1411
12.06.2026 12:58:54	-2,5666	 2,2951	 2,5914	 2,4527	 2,4870	 2,6031	-2,8535	 2,4776	-2,8893	-3,0615	-1,3892	 2,6111	-3,0834	-2,6177	 0,0000	 2,4754	-2,8966	 2,4381	-2,8017	 2,7995	 2,4849	 1,0154	 2,7024	-2,9207	 2,4644	 4,4843	-2,8586	 3,0623	 2,9871	 3,1725	-3,1126	 3,1448
12.06.2026 12:58:54	-2,5659	 2,2972	 2,6002	 2,4608	 2,4870	 2,6017	-2,8462	 2,4783	-2,8820	-3,0535	-1,3892	 2,6075	-3,0900	-2,6170	 0,0000	 2,4732	-2,9061	 2,4359	-2,7987	 2,7958	 2,4834	 1,0132	 2,7075	-2,9192	 2,4600	 4,3521	-2,8630	 3,0608	 2,9783	 3,1783	-3,1243	 3,1323
12.06.2026 12:58:54	-2,5586	 2,2972	 2,5965	 2,4564	 2,4863	 2,5973	-2,8447	 2,4768	-2,8790	-3,0506	-1,3855	 2,6068	-3,0820	-2,6184	 0,0000	 2,4739	-2,9002	 2,4367	-2,7907	 2,7929	 2,4812	 1,0139	 2,7090	-2,9155	 2,4593	 4,0711	-2,8776	 3,0593	 2,9696	 3,1798	-3,1287	 3,1448
12.06.2026 12:58:54	-2,5535	 2,3002	 2,5885	 2,4513	 2,4812	 2,5914	-2,8433	 2,4717	-2,8754	-3,0433	-1,3753	 2,6090	-3,0761	-2,6148	 0,0000	 2,4761	-2,8900	 2,4447	-2,7856	 2,7907	 2,4790	 1,0169	 2,7082	-2,9112	 2,4586	 3,7594	-2,8615	 3,0572	 2,9798	 3,1820	-3,1017	 3,1411
12.06.2026 12:58:54	-2,5542	 2,2826	 2,5827	 2,4505	 2,4776	 2,5885	-2,8404	 2,4695	-2,8725	-3,0418	-1,3789	 2,6060	-3,0710	-2,6104	 0,0000	 2,4717	-2,8915	 2,4338	-2,7871	 2,7878	 2,4761	 1,0161	 2,7038	-2,9097	 2,4549	 3,6755	-2,8484	 3,0462	 2,9783	 3,1491	-3,0893	 3,1017
12.06.2026 12:58:54	-2,5484	 2,2805	 2,5900	 2,4535	 2,4681	 2,5892	-2,8352	 2,4703	-2,8659	-3,0367	-1,3811	 2,6038	-3,0615	-2,6082	 0,0000	 2,4695	-2,8849	 2,4133	-2,7871	 2,7827	 2,4717	 1,0125	 2,6929	-2,9090	 2,4505	 3,6703	-2,8637	 3,0221	 2,9681	 3,1323	-3,1017	 3,0893
12.06.2026 12:58:54	-2,5484	 2,2826	 2,5900	 2,4527	 2,4651	 2,5856	-2,8316	 2,4688	-2,8615	-3,0331	-1,3767	 2,6002	-3,0579	-2,6097	 0,0000	 2,4695	-2,8842	 2,4155	-2,7878	 2,7776	 2,4673	 1,0103	 2,6900	-2,9090	 2,4454	 3,6017	-2,8703	 3,0185	 2,9688	 3,1477	-3,1068	 3,0944
12.06.2026 12:58:54	-2,5527	 2,2746	 2,5819	 2,4476	 2,4651	 2,5798	-2,8316	 2,4659	-2,8623	-3,0374	-1,3775	 2,5944	-3,0623	-2,6060	 0,0000	 2,4600	-2,8856	 2,4148	-2,7900	 2,7717	 2,4644	 1,0074	 2,6841	-2,9104	 2,4403	 3,5492	-2,8586	 3,0272	 2,9725	 3,1491	-3,0973	 3,0951
12.06.2026 12:58:54	-2,5600	 2,2710	 2,5776	 2,4440	 2,4600	 2,5754	-2,8309	 2,4630	-2,8601	-3,0353	-1,3760	 2,5922	-3,0601	-2,6038	 0,0000	 2,4542	-2,8754	 2,4162	-2,7856	 2,7681	 2,4630	 1,0081	 2,6849	-2,9090	 2,4381	 3,8704	-2,8498	 3,0155	 2,9739	 3,1389	-3,0798	 3,0769
12.06.2026 12:58:54	-2,5535	 2,2724	 2,5732	 2,4381	 2,4593	 2,5732	-2,8287	 2,4608	-2,8586	-3,0309	-1,3738	 2,5980	-3,0535	-2,6017	 0,0000	 2,4549	-2,8747	 2,4184	-2,7827	 2,7666	 2,4608	 1,0074	 2,6841	-2,9068	 2,4367	 4,0229	-2,8404	 3,0119	 2,9725	 3,1280	-3,0696	 3,0827
12.06.2026 12:58:54	-2,5469	 2,2659	 2,5717	 2,4359	 2,4600	 2,5732	-2,8250	 2,4586	-2,8550	-3,0272	-1,3709	 2,5936	-3,0528	-2,6002	 0,0000	 2,4557	-2,8696	 2,4162	-2,7812	 2,7608	 2,4564	 1,0066	 2,6776	-2,9068	 2,4308	 3,7572	-2,8411	 3,0214	 2,9703	 3,1229	-3,0703	 3,0885
12.06.2026 12:58:54	-2,5462	 2,2483	 2,5630	 2,4272	 2,4600	 2,5703	-2,8221	 2,4549	-2,8557	-3,0323	-1,3811	 2,5965	-3,0455	-2,5958	 0,0000	 2,4520	-2,8703	 2,4148	-2,7725	 2,7608	 2,4549	 1,0066	 2,6790	-2,9017	 2,4286	 3,5879	-2,8593	 3,0214	 2,9652	 3,1250	-3,0798	 3,0718
12.06.2026 12:58:54	-2,5381	 2,2491	 2,5586	 2,4243	 2,4586	 2,5681	-2,8192	 2,4527	-2,8542	-3,0294	-1,3775	 2,5980	-3,0404	-2,5885	 0,0000	 2,4484	-2,8739	 2,4053	-2,7674	 2,7593	 2,4527	 1,0045	 2,6732	-2,8988	 2,4265	 3,3959	-2,8535	 3,0155	 2,9528	 3,1477	-3,0827	 3,0922
12.06.2026 12:58:54	-2,5389	 2,2607	 2,5600	 2,4250	 2,4630	 2,5673	-2,8163	 2,4505	-2,8469	-3,0207	-1,3702	 2,5958	-3,0316	-2,5900	 0,0000	 2,4498	-2,8644	 2,4031	-2,7615	 2,7549	 2,4505	 1,0059	 2,6695	-2,8966	 2,4243	 3,0761	-2,8520	 3,0243	 2,9367	 3,1681	-3,0842	 3,1002
12.06.2026 12:58:54	-2,5345	 2,2680	 2,5579	 2,4221	 2,4564	 2,5652	-2,8148	 2,4484	-2,8440	-3,0134	-1,3724	 2,5951	-3,0345	-2,5863	 0,0000	 2,4469	-2,8630	 2,4067	-2,7615	 2,7520	 2,4484	 1,0052	 2,6732	-2,8929	 2,4235	 2,9936	-2,8696	 3,0177	 2,9104	 3,1594	-3,1024	 3,0842
12.06.2026 12:58:54	-2,5418	 2,2753	 2,5491	 2,4213	 2,4484	 2,5571	-2,8148	 2,4462	-2,8382	-3,0046	-1,3592	 2,5892	-3,0455	-2,5863	 0,0000	 2,4491	-2,8674	 2,4031	-2,7681	 2,7469	 2,4454	 1,0045	 2,6659	-2,8929	 2,4199	 3,1119	-2,8798	 3,0265	 2,8885	 3,1608	-3,1039	 3,0893
12.06.2026 12:58:54	-2,5367	 2,2710	 2,5469	 2,4184	 2,4454	 2,5549	-2,8104	 2,4440	-2,8360	-3,0024	-1,3578	 2,5849	-3,0411	-2,5827	 0,0000	 2,4491	-2,8885	 2,3980	-2,7652	 2,7440	 2,4418	 1,0059	 2,6630	-2,8915	 2,4184	 3,0688	-2,8630	 3,0192	 2,8871	 3,1469	-3,0988	 3,0820
12.06.2026 12:58:54	-2,5235	 2,2498	 2,5440	 2,4119	 2,4403	 2,5506	-2,8082	 2,4425	-2,8345	-3,0104	-1,3702	 2,5834	-3,0374	-2,5805	 0,0000	 2,4600	-2,8644	 2,3921	-2,7644	 2,7396	 2,4381	 1,0059	 2,6637	-2,8900	 2,4162	 3,3324	-2,8396	 3,0177	 2,8834	 3,1462	-3,1002	 3,0645
12.06.2026 12:58:54	-2,5338	 2,2454	 2,5345	 2,4075	 2,4440	 2,5476	-2,8060	 2,4367	-2,8338	-3,0075	-1,3592	 2,5849	-3,0309	-2,5776	 0,0000	 2,4498	-2,8440	 2,3921	-2,7622	 2,7389	 2,4367	 1,0074	 2,6608	-2,8871	 2,4162	 3,8287	-2,8477	 3,0170	 2,8761	 3,1396	-3,0805	 3,0426
12.06.2026 12:58:54	-2,5250	 2,2498	 2,5374	 2,4046	 2,4425	 2,5535	-2,7995	 2,4345	-2,8309	-2,9966	-1,3497	 2,5892	-3,0207	-2,5703	 0,0000	 2,4272	-2,8447	 2,4009	-2,7513	 2,7403	 2,4367	 1,0088	 2,6644	-2,8820	 2,4192	 3,9288	-2,8440	 2,9791	 2,8812	 3,1046	-3,0601	 3,0353
12.06.2026 12:58:54	-2,5192	 2,2469	 2,5345	 2,4060	 2,4425	 2,5491	-2,8002	 2,4323	-2,8236	-2,9922	-1,3490	 2,5914	-3,0192	-2,5695	 0,0000	 2,4352	-2,8258	 2,3943	-2,7469	 2,7382	 2,4352	 1,0088	 2,6622	-2,8776	 2,4177	 3,8645	-2,8141	 2,9593	 2,9039	 3,0856	-3,0280	 3,0287
12.06.2026 12:58:54	-2,5177	 2,2534	 2,5308	 2,4046	 2,4462	 2,5476	-2,7980	 2,4294	-2,8199	-2,9871	-1,3424	 2,5878	-3,0141	-2,5673	 0,0000	 2,4396	-2,8396	 2,3951	-2,7389	 2,7367	 2,4338	 1,0096	 2,6571	-2,8732	 2,4162	 3,7630	-2,7958	 2,9674	 2,9185	 3,0893	-3,0104	 3,0309
12.06.2026 12:58:54	-2,5031	 2,2651	 2,5294	 2,4016	 2,4462	 2,5498	-2,7936	 2,4265	-2,8163	-2,9791	-1,3402	 2,5900	-3,0221	-2,5630	 0,0000	 2,4425	-2,8433	 2,4038	-2,7316	 2,7360	 2,4345	 1,0110	 2,6644	-2,8674	 2,4184	 3,6623	-2,7922	 2,9754	 2,9367	 3,0995	-3,0214	 3,0520
12.06.2026 12:58:54	-2,5053	 2,2571	 2,5228	 2,4002	 2,4440	 2,5447	-2,7893	 2,4221	-2,8133	-2,9747	-1,3388	 2,5892	-3,0389	-2,5579	 0,0000	 2,4374	-2,8177	 2,3994	-2,7323	 2,7338	 2,4338	 1,0110	 2,6652	-2,8637	 2,4177	 3,3455	-2,7301	 2,9177	 3,0170	 3,0382	-2,9710	 2,9885
12.06.2026 12:58:54	-2,5046	 2,2483	 2,5206	 2,3951	 2,4440	 2,5418	-2,7863	 2,4192	-2,8133	-2,9776	-1,3388	 2,5878	-3,0185	-2,5586	 0,0000	 2,4316	-2,8141	 2,4053	-2,7287	 2,7301	 2,4308	 1,0103	 2,6673	-2,8623	 2,4155	 3,3674	-2,7024	 2,8885	 3,0440	 2,9988	-2,9455	 2,9484
12.06.2026 12:58:54	-2,5038	 2,2447	 2,5155	 2,3900	 2,4440	 2,5454	-2,7878	 2,4170	-2,8126	-2,9783	-1,3417	 2,5863	-2,9958	-2,5571	 0,0000	 2,4316	-2,8374	 2,3921	-2,7243	 2,7294	 2,4272	 1,0088	 2,6557	-2,8608	 2,4119	 3,7390	-2,7265	 2,9170	 3,0009	 3,0250	-2,9696	 2,9703
12.06.2026 12:58:54	-2,5097	 2,2461	 2,5126	 2,3892	 2,4323	 2,5381	-2,7856	 2,4155	-2,8060	-2,9681	-1,3300	 2,5783	-2,9951	-2,5520	 0,0000	 2,4330	-2,8287	 2,4082	-2,7243	 2,7272	 2,4250	 1,0110	 2,6622	-2,8571	 2,4104	 3,6390	-2,7513	 2,9382	 2,9608	 3,0455	-2,9805	 2,9878
12.06.2026 12:58:54	-2,5016	 2,2542	 2,5082	 2,3892	 2,4316	 2,5279	-2,7834	 2,4126	-2,8009	-2,9608	-1,3242	 2,5790	-2,9936	-2,5506	 0,0000	 2,4345	-2,8017	 2,3958	-2,7250	 2,7257	 2,4235	 1,0132	 2,6484	-2,8528	 2,4089	 3,6966	-2,7783	 2,9484	 2,9411	 3,0506	-3,0002	 2,9915
12.06.2026 12:58:54	-2,5009	 2,2527	 2,5009	 2,3848	 2,4272	 2,5301	-2,7805	 2,4104	-2,7987	-2,9579	-1,3278	 2,5754	-2,9864	-2,5454	 0,0000	 2,4294	-2,7951	 2,3651	-2,7214	 2,7243	 2,4228	 1,0110	 2,6294	-2,8498	 2,4060	 4,0164	-2,7688	 2,9593	 2,9469	 3,0528	-2,9966	 2,9893
12.06.2026 12:58:54	-2,4958	 2,2483	 2,4973	 2,3834	 2,4286	 2,5279	-2,7776	 2,4082	-2,7958	-2,9557	-1,3264	 2,5732	-2,9966	-2,5425	 0,0000	 2,4243	-2,7958	 2,3914	-2,7206	 2,7236	 2,4206	 1,0081	 2,6513	-2,8469	 2,4067	 4,1813	-2,7615	 2,9747	 2,9360	 3,0674	-2,9922	 3,0119
12.06.2026 12:58:54	-2,4870	 2,2454	 2,5002	 2,3805	 2,4323	 2,5301	-2,7725	 2,4046	-2,7929	-2,9564	-1,3359	 2,5739	-2,9958	-2,5389	 0,0000	 2,4192	-2,7936	 2,3892	-2,7133	 2,7206	 2,4177	 1,0052	 2,6513	-2,8433	 2,4038	 4,1404	-2,7710	 2,9666	 2,9338	 3,0864	-3,0017	 3,0221
12.06.2026 12:58:54	-2,4797	 2,2308	 2,5009	 2,3768	 2,4279	 2,5308	-2,7688	 2,4024	-2,7922	-2,9557	-1,3308	 2,5703	-2,9820	-2,5367	 0,0000	 2,4140	-2,8002	 2,3790	-2,7060	 2,7192	 2,4177	 1,0015	 2,6447	-2,8404	 2,4002	 3,9499	-2,7725	 2,9725	 2,9338	 3,0988	-2,9973	 3,0090
12.06.2026 12:58:54	-2,4768	 2,2257	 2,4943	 2,3688	 2,4279	 2,5265	-2,7674	 2,3987	-2,7929	-2,9542	-1,3235	 2,5695	-2,9776	-2,5345	 0,0000	 2,4097	-2,8046	 2,3768	-2,7031	 2,7184	 2,4177	 1,0023	 2,6389	-2,8345	 2,3994	 3,7477	-2,7630	 2,9674	 2,9280	 3,0856	-2,9893	 2,9929
12.06.2026 12:58:54	-2,4746	 2,2286	 2,4885	 2,3659	 2,4250	 2,5250	-2,7666	 2,3958	-2,7914	-2,9528	-1,3256	 2,5652	-2,9659	-2,5287	 0,0000	 2,4082	-2,8024	 2,3768	-2,6973	 2,7170	 2,4162	 1,0030	 2,6411	-2,8287	 2,3987	 3,4908	-2,7666	 2,9572	 2,9068	 3,0710	-3,0024	 2,9907
12.06.2026 12:58:54	-2,4710	 2,2213	 2,4849	 2,3637	 2,4243	 2,5221	-2,7637	 2,3929	-2,7914	-2,9550	-1,3198	 2,5622	-2,9681	-2,5243	 0,0000	 2,4053	-2,7980	 2,3841	-2,6944	 2,7170	 2,4140	 1,0015	 2,6411	-2,8258	 2,3980	 3,5295	-2,7695	 2,9389	 2,8958	 3,0688	-3,0177	 2,9666
12.06.2026 12:58:54	-2,4739	 2,2250	 2,4834	 2,3593	 2,4250	 2,5243	-2,7601	 2,3900	-2,7885	-2,9513	-1,3198	 2,5615	-2,9659	-2,5228	 0,0000	 2,4075	-2,7914	 2,3775	-2,6914	 2,7148	 2,4119	 1,0037	 2,6381	-2,8214	 2,3965	 3,6784	-2,7747	 2,9163	 2,9002	 3,0710	-3,0192	 2,9666
12.06.2026 12:58:54	-2,4710	 2,2257	 2,4827	 2,3615	 2,4228	 2,5214	-2,7549	 2,3900	-2,7805	-2,9433	-1,3162	 2,5579	-2,9593	-2,5221	 0,0000	 2,4133	-2,7856	 2,3637	-2,6907	 2,7111	 2,4097	 1,0015	 2,6316	-2,8192	 2,3929	 3,3557	-2,7747	 2,9389	 2,8973	 3,0776	-3,0265	 2,9929
12.06.2026 12:58:54	-2,4637	 2,2337	 2,4761	 2,3578	 2,4192	 2,5089	-2,7520	 2,3878	-2,7783	-2,9367	-1,3110	 2,5498	-2,9615	-2,5177	 0,0000	 2,4206	-2,7885	 2,3629	-2,6922	 2,7075	 2,4067	 0,9979	 2,6243	-2,8192	 2,3863	 3,4740	-2,7601	 2,9484	 2,9185	 3,0469	-3,0134	 2,9791
12.06.2026 12:58:54	-2,4637	 2,2316	 2,4681	 2,3505	 2,4126	 2,5097	-2,7571	 2,3841	-2,7783	-2,9323	-1,3096	 2,5447	-2,9520	-2,5170	 0,0000	 2,4126	-2,7914	 2,3797	-2,6907	 2,7046	 2,4038	 0,9979	 2,6345	-2,8155	 2,3848	 3,9404	-2,7221	 2,9433	 2,9353	 3,0309	-2,9827	 2,9674
12.06.2026 12:58:54	-2,4659	 2,2243	 2,4659	 2,3498	 2,4075	 2,5075	-2,7542	 2,3827	-2,7747	-2,9309	-1,3118	 2,5433	-2,9477	-2,5155	 0,0000	 2,3958	-2,7863	 2,3775	-2,6856	 2,7017	 2,4016	 0,9950	 2,6308	-2,8126	 2,3827	 3,9171	-2,6980	 2,9433	 2,9542	 3,0382	-2,9564	 2,9812
12.06.2026 12:58:54	-2,4586	 2,2250	 2,4622	 2,3462	 2,4082	 2,5031	-2,7498	 2,3812	-2,7761	-2,9331	-1,3110	 2,5345	-2,9506	-2,5126	 0,0000	 2,3878	-2,7856	 2,3608	-2,6849	 2,6987	 2,3987	 0,9899	 2,6199	-2,8097	 2,3768	 3,8120	-2,7082	 2,9484	 2,9542	 3,0455	-2,9477	 2,9812
12.06.2026 12:58:54	-2,4608	 2,2045	 2,4564	 2,3410	 2,4009	 2,4995	-2,7491	 2,3790	-2,7761	-2,9382	-1,3220	 2,5265	-2,9542	-2,5104	 0,0000	 2,3819	-2,7805	 2,3535	-2,6841	 2,6980	 2,3958	 0,9869	 2,6126	-2,8075	 2,3717	 3,6098	-2,7024	 2,9593	 2,9360	 3,0535	-2,9491	 2,9688
12.06.2026 12:58:54	-2,4586	 2,2045	 2,4535	 2,3389	 2,3994	 2,4980	-2,7462	 2,3754	-2,7732	-2,9345	-1,3213	 2,5301	-2,9499	-2,5082	 0,0000	 2,3827	-2,7747	 2,3483	-2,6776	 2,6958	 2,3951	 0,9869	 2,6075	-2,8024	 2,3710	 3,3367	-2,6951	 2,9535	 2,9331	 3,0477	-2,9265	 2,9747
12.06.2026 12:58:54	-2,4578	 2,2016	 2,4535	 2,3337	 2,3980	 2,4965	-2,7425	 2,3724	-2,7717	-2,9316	-1,3154	 2,5265	-2,9499	-2,5053	 0,0000	 2,3819	-2,7703	 2,3469	-2,6703	 2,6922	 2,3914	 0,9862	 2,6068	-2,7995	 2,3681	 3,0623	-2,6834	 2,9447	 2,9294	 3,0499	-2,9053	 2,9791
12.06.2026 12:58:54	-2,4703	 2,2002	 2,4476	 2,3279	 2,3936	 2,4870	-2,7418	 2,3702	-2,7695	-2,9280	-1,3162	 2,5162	-2,9674	-2,5016	 0,0000	 2,3797	-2,7637	 2,3476	-2,6725	 2,6878	 2,3900	 0,9855	 2,6060	-2,7966	 2,3644	 3,0550	-2,6768	 2,9528	 2,9301	 3,0615	-2,9141	 2,9659
12.06.2026 12:58:54	-2,4688	 2,2155	 2,4381	 2,3279	 2,3921	 2,4812	-2,7418	 2,3666	-2,7637	-2,9199	-1,3037	 2,5162	-2,9754	-2,5031	 0,0000	 2,3812	-2,7878	 2,3432	-2,6776	 2,6841	 2,3878	 0,9855	 2,6017	-2,7951	 2,3629	 3,1864	-2,6878	 2,9659	 2,9068	 3,0754	-2,9353	 2,9725
12.06.2026 12:58:54	-2,4549	 2,2089	 2,4352	 2,3286	 2,3827	 2,4805	-2,7389	 2,3651	-2,7593	-2,9185	-1,3103	 2,5075	-2,9623	-2,4987	 0,0000	 2,3805	-2,7820	 2,3389	-2,6761	 2,6834	 2,3841	 0,9847	 2,5973	-2,7936	 2,3586	 2,9966	-2,7031	 2,9469	 2,8747	 3,0645	-2,9564	 2,9652
12.06.2026 12:58:54	-2,4469	 2,2067	 2,4352	 2,3279	 2,3812	 2,4805	-2,7345	 2,3651	-2,7564	-2,9134	-1,3089	 2,5009	-2,9411	-2,4965	 0,0000	 2,3732	-2,7593	 2,3352	-2,6768	 2,6798	 2,3827	 0,9833	 2,5944	-2,7893	 2,3556	 2,9929	-2,7148	 2,9447	 2,8652	 3,0754	-2,9630	 2,9615
12.06.2026 12:58:54	-2,4432	 2,1921	 2,4381	 2,3250	 2,3856	 2,4805	-2,7316	 2,3644	-2,7535	-2,9104	-1,3067	 2,5031	-2,9294	-2,4980	 0,0000	 2,3695	-2,7608	 2,3301	-2,6725	 2,6776	 2,3805	 0,9826	 2,5878	-2,7863	 2,3542	 3,2426	-2,7184	 2,9652	 2,8615	 3,0805	-2,9645	 2,9878
12.06.2026 12:58:54	-2,4469	 2,1921	 2,4352	 2,3170	 2,3841	 2,4776	-2,7301	 2,3600	-2,7542	-2,9090	-1,3067	 2,5038	-2,9265	-2,4922	 0,0000	 2,3659	-2,7491	 2,3381	-2,6659	 2,6783	 2,3797	 0,9847	 2,5922	-2,7827	 2,3549	 3,3783	-2,7214	 2,9513	 2,8389	 3,0732	-2,9696	 2,9922
12.06.2026 12:58:54	-2,4447	 2,1870	 2,4330	 2,3140	 2,3812	 2,4739	-2,7287	 2,3564	-2,7542	-2,9134	-1,3081	 2,5016	-2,9287	-2,4892	 0,0000	 2,3608	-2,7542	 2,3389	-2,6608	 2,6761	 2,3797	 0,9847	 2,5914	-2,7768	 2,3556	 3,3389	-2,7243	 2,9608	 2,8309	 3,0834	-2,9630	 2,9915
12.06.2026 12:58:54	-2,4330	 2,1666	 2,4308	 2,3140	 2,3768	 2,4739	-2,7265	 2,3549	-2,7498	-2,9134	-1,3074	 2,4951	-2,9265	-2,4878	 0,0000	 2,3615	-2,7476	 2,3279	-2,6557	 2,6761	 2,3775	 0,9833	 2,5849	-2,7739	 2,3520	 3,1462	-2,7396	 2,9944	 2,8206	 3,0842	-2,9703	 2,9922
12.06.2026 12:58:54	-2,4272	 2,1812	 2,4272	 2,3097	 2,3805	 2,4724	-2,7250	 2,3498	-2,7484	-2,9053	-1,2921	 2,4973	-2,9199	-2,4841	 0,0000	 2,3629	-2,7418	 2,3316	-2,6491	 2,6732	 2,3775	 0,9862	 2,5841	-2,7695	 2,3527	 2,9783	-2,7579	 2,9893	 2,7966	 3,0885	-2,9893	 3,0009
12.06.2026 12:58:54	-2,4272	 2,1892	 2,4257	 2,3089	 2,3790	 2,4717	-2,7214	 2,3476	-2,7440	-2,8980	-1,2935	 2,5002	-2,9134	-2,4819	 0,0000	 2,3637	-2,7440	 2,3323	-2,6440	 2,6710	 2,3754	 0,9877	 2,5827	-2,7644	 2,3535	 2,8039	-2,7630	 2,9761	 2,7893	 3,0864	-2,9915	 3,0075
12.06.2026 12:58:54	-2,4301	 2,1936	 2,4221	 2,3089	 2,3754	 2,4688	-2,7184	 2,3462	-2,7367	-2,8893	-1,2899	 2,4943	-2,9119	-2,4790	 0,0000	 2,3629	-2,7382	 2,3279	-2,6447	 2,6695	 2,3717	 0,9862	 2,5863	-2,7622	 2,3520	 2,8301	-2,7411	 2,9834	 2,8097	 3,0878	-2,9579	 2,9856
12.06.2026 12:58:54	-2,4432	 2,2060	 2,4148	 2,3053	 2,3710	 2,4600	-2,7177	 2,3440	-2,7352	-2,8885	-1,2833	 2,4929	-2,9134	-2,4754	 0,0000	 2,3622	-2,7498	 2,3316	-2,6433	 2,6659	 2,3688	 0,9869	 2,5871	-2,7601	 2,3520	 3,0009	-2,7265	 2,9834	 2,8309	 3,0900	-2,9382	 2,9842
12.06.2026 12:58:54	-2,4418	 2,2038	 2,4097	 2,3038	 2,3637	 2,4564	-2,7148	 2,3425	-2,7301	-2,8820	-1,2797	 2,4900	-2,9214	-2,4739	 0,0000	 2,3622	-2,7549	 2,3294	-2,6418	 2,6622	 2,3651	 0,9862	 2,5849	-2,7579	 2,3491	 2,8703	-2,7279	 2,9966	 2,8243	 3,0937	-2,9323	 3,0017
12.06.2026 12:58:54	-2,4213	 2,1951	 2,4119	 2,3045	 2,3651	 2,4600	-2,7090	 2,3418	-2,7272	-2,8783	-1,2833	 2,4827	-2,9258	-2,4724	 0,0000	 2,3629	-2,7360	 2,3228	-2,6440	 2,6571	 2,3615	 0,9862	 2,5805	-2,7601	 2,3454	 2,9134	-2,7250	 2,9922	 2,8221	 3,0856	-2,9243	 2,9842
12.06.2026 12:58:54	-2,4148	 2,1805	 2,4111	 2,3031	 2,3659	 2,4586	-2,7053	 2,3418	-2,7243	-2,8776	-1,2797	 2,4805	-2,9082	-2,4703	 0,0000	 2,3556	-2,7199	 2,3199	-2,6433	 2,6542	 2,3586	 0,9855	 2,5776	-2,7593	 2,3440	 3,1827	-2,7294	 2,9907	 2,8148	 3,0739	-2,9280	 2,9703
12.06.2026 12:58:54	-2,4111	 2,1753	 2,4053	 2,2994	 2,3644	 2,4600	-2,7038	 2,3374	-2,7206	-2,8717	-1,2745	 2,4834	-2,8929	-2,4688	 0,0000	 2,3535	-2,7060	 2,3235	-2,6374	 2,6513	 2,3564	 0,9877	 2,5776	-2,7564	 2,3447	 3,3061	-2,7163	 3,0024	 2,8199	 3,0849	-2,8980	 2,9995
12.06.2026 12:58:54	-2,4082	 2,1819	 2,4024	 2,2936	 2,3644	 2,4520	-2,6987	 2,3352	-2,7206	-2,8747	-1,2818	 2,4805	-2,8915	-2,4659	 0,0000	 2,3505	-2,7148	 2,3177	-2,6301	 2,6498	 2,3542	 0,9862	 2,5761	-2,7520	 2,3440	 3,2835	-2,7031	 3,0017	 2,8185	 3,0937	-2,8863	 3,0134
12.06.2026 12:58:54	-2,3951	 2,1783	 2,4067	 2,2936	 2,3688	 2,4505	-2,6973	 2,3345	-2,7170	-2,8732	-1,2753	 2,4812	-2,8951	-2,4644	 0,0000	 2,3505	-2,7338	 2,3075	-2,6272	 2,6462	 2,3520	 0,9877	 2,5725	-2,7491	 2,3425	 3,0747	-2,7141	 3,0090	 2,8133	 3,0937	-2,8915	 3,0053
12.06.2026 12:58:54	-2,3907	 2,1717	 2,4089	 2,2943	 2,3695	 2,4593	-2,6980	 2,3323	-2,7126	-2,8666	-1,2753	 2,4834	-2,8900	-2,4637	 0,0000	 2,3535	-2,7243	 2,3177	-2,6206	 2,6440	 2,3505	 0,9906	 2,5739	-2,7455	 2,3432	 2,8820	-2,7141	 2,9951	 2,8141	 3,0922	-2,8812	 3,0053
12.06.2026 12:58:54	-2,3951	 2,1783	 2,4024	 2,2929	 2,3644	 2,4535	-2,6936	 2,3301	-2,7082	-2,8608	-1,2716	 2,4812	-2,8907	-2,4593	 0,0000	 2,3469	-2,7111	 2,3177	-2,6170	 2,6411	 2,3476	 0,9877	 2,5761	-2,7433	 2,3403	 2,6892	-2,7038	 2,9776	 2,7951	 3,0871	-2,8980	 2,9951
12.06.2026 12:58:54	-2,4031	 2,1732	 2,3980	 2,2892	 2,3608	 2,4527	-2,6900	 2,3272	-2,7060	-2,8615	-1,2680	 2,4812	-2,8834	-2,4593	 0,0000	 2,3432	-2,6995	 2,3082	-2,6148	 2,6381	 2,3454	 0,9891	 2,5600	-2,7425	 2,3374	 2,6484	-2,7068	 2,9623	 2,7798	 3,0834	-2,9301	 2,9769
12.06.2026 12:58:54	-2,4111	 2,1556	 2,3929	 2,2841	 2,3520	 2,4432	-2,6871	 2,3243	-2,7053	-2,8637	-1,2753	 2,4761	-2,8820	-2,4586	 0,0000	 2,3396	-2,6951	 2,3162	-2,6162	 2,6345	 2,3410	 0,9877	 2,5615	-2,7425	 2,3337	 2,7564	-2,6951	 2,9418	 2,7754	 3,0791	-2,9170	 2,9776
12.06.2026 12:58:54	-2,3973	 2,1680	 2,3907	 2,2812	 2,3520	 2,4367	-2,6849	 2,3213	-2,7024	-2,8571	-1,2745	 2,4739	-2,8871	-2,4549	 0,0000	 2,3374	-2,6951	 2,3133	-2,6184	 2,6301	 2,3381	 0,9826	 2,5703	-2,7411	 2,3301	 2,6002	-2,6812	 2,9323	 2,7834	 3,0652	-2,9024	 2,9805
12.06.2026 12:58:54	-2,3900	 2,1717	 2,3878	 2,2768	 2,3469	 2,4425	-2,6878	 2,3184	-2,7024	-2,8513	-1,2672	 2,4746	-2,8842	-2,4513	 0,0000	 2,3345	-2,6958	 2,2972	-2,6155	 2,6287	 2,3367	 0,9833	 2,5579	-2,7396	 2,3272	 2,5666	-2,6907	 2,9477	 2,7695	 3,0535	-2,9199	 2,9696
12.06.2026 12:58:54	-2,3863	 2,1659	 2,3848	 2,2805	 2,3410	 2,4352	-2,6863	 2,3162	-2,6951	-2,8455	-1,2614	 2,4688	-2,8922	-2,4491	 0,0000	 2,3337	-2,6929	 2,2929	-2,6199	 2,6243	 2,3323	 0,9811	 2,5520	-2,7411	 2,3221	 2,7878	-2,6856	 2,9579	 2,7469	 3,0542	-2,9163	 2,9688
12.06.2026 12:58:54	-2,3856	 2,1637	 2,3797	 2,2746	 2,3462	 2,4308	-2,6805	 2,3140	-2,6929	-2,8462	-1,2643	 2,4717	-2,8805	-2,4498	 0,0000	 2,3330	-2,6900	 2,3024	-2,6126	 2,6199	 2,3308	 0,9811	 2,5542	-2,7396	 2,3213	 2,9075	-2,6841	 2,9520	 2,7462	 3,0645	-2,9075	 2,9980
12.06.2026 12:58:54	-2,3841	 2,1637	 2,3746	 2,2732	 2,3447	 2,4345	-2,6754	 2,3118	-2,6878	-2,8411	-1,2614	 2,4732	-2,8688	-2,4462	 0,0000	 2,3316	-2,6885	 2,3075	-2,6068	 2,6184	 2,3294	 0,9811	 2,5586	-2,7352	 2,3199	 2,8769	-2,6936	 2,9404	 2,7403	 3,0615	-2,9009	 2,9958
12.06.2026 12:58:54	-2,3841	 2,1637	 2,3761	 2,2739	 2,3389	 2,4323	-2,6703	 2,3126	-2,6827	-2,8352	-1,2578	 2,4681	-2,8623	-2,4403	 0,0000	 2,3308	-2,6841	 2,3002	-2,6031	 2,6177	 2,3264	 0,9789	 2,5520	-2,7323	 2,3140	 2,6593	-2,7002	 2,9331	 2,7316	 3,0601	-2,9053	 2,9791
12.06.2026 12:58:54	-2,3819	 2,1644	 2,3761	 2,2710	 2,3403	 2,4301	-2,6703	 2,3097	-2,6827	-2,8345	-1,2534	 2,4695	-2,8571	-2,4374	 0,0000	 2,3286	-2,6871	 2,3038	-2,5965	 2,6162	 2,3243	 0,9767	 2,5513	-2,7294	 2,3111	 2,4192	-2,7046	 2,9287	 2,7148	 3,0462	-2,9112	 2,9820
12.06.2026 12:58:54	-2,3805	 2,1644	 2,3746	 2,2739	 2,3396	 2,4279	-2,6659	 2,3075	-2,6761	-2,8294	-1,2548	 2,4688	-2,8593	-2,4345	 0,0000	 2,3323	-2,6856	 2,2914	-2,5944	 2,6141	 2,3221	 0,9767	 2,5454	-2,7257	 2,3082	 2,2381	-2,6958	 2,9243	 2,7046	 3,0404	-2,8958	 2,9791
12.06.2026 12:58:54	-2,3827	 2,1513	 2,3702	 2,2659	 2,3359	 2,4243	-2,6652	 2,3038	-2,6768	-2,8338	-1,2592	 2,4688	-2,8666	-2,4330	 0,0000	 2,3410	-2,6739	 2,2899	-2,5936	 2,6119	 2,3206	 0,9789	 2,5447	-2,7228	 2,3067	 2,2607	-2,6892	 2,9294	 2,7097	 3,0586	-2,8951	 2,9688
12.06.2026 12:58:54	-2,3783	 2,1534	 2,3681	 2,2673	 2,3330	 2,4213	-2,6637	 2,3009	-2,6710	-2,8250	-1,2526	 2,4651	-2,8805	-2,4279	 0,0000	 2,3243	-2,6761	 2,2936	-2,5944	 2,6097	 2,3177	 0,9753	 2,5440	-2,7214	 2,3031	 2,4024	-2,6717	 2,9316	 2,7192	 3,0447	-2,8922	 2,9608
12.06.2026 12:58:54	-2,3666	 2,1527	 2,3651	 2,2702	 2,3294	 2,4162	-2,6608	 2,2994	-2,6666	-2,8185	-1,2453	 2,4644	-2,8725	-2,4250	 0,0000	 2,3082	-2,6768	 2,2819	-2,5914	 2,6075	 2,3162	 0,9709	 2,5323	-2,7184	 2,2994	 2,2556	-2,6600	 2,9236	 2,7455	 3,0345	-2,8849	 2,9710
12.06.2026 12:58:54	-2,3600	 2,1513	 2,3600	 2,2615	 2,3286	 2,4126	-2,6622	 2,2958	-2,6673	-2,8148	-1,2505	 2,4630	-2,8535	-2,4272	 0,0000	 2,3155	-2,6659	 2,2921	-2,5914	 2,6053	 2,3155	 0,9723	 2,5381	-2,7177	 2,2972	 2,3024	-2,6535	 2,9207	 2,7652	 3,0243	-2,8681	 2,9572
12.06.2026 12:58:54	-2,3564	 2,1447	 2,3666	 2,2600	 2,3250	 2,4177	-2,6535	 2,2943	-2,6659	-2,8148	-1,2541	 2,4549	-2,8396	-2,4213	 0,0000	 2,3097	-2,6725	 2,2717	-2,5914	 2,6024	 2,3126	 0,9687	 2,5279	-2,7170	 2,2914	 2,6243	-2,6403	 2,9177	 2,7747	 3,0068	-2,8411	 2,9382
12.06.2026 12:58:54	-2,3549	 2,1432	 2,3629	 2,2556	 2,3221	 2,4155	-2,6513	 2,2929	-2,6644	-2,8192	-1,2578	 2,4542	-2,8462	-2,4177	 0,0000	 2,3075	-2,6717	 2,2622	-2,5878	 2,6017	 2,3104	 0,9672	 2,5192	-2,7141	 2,2892	 2,7484	-2,6199	 2,9017	 2,7776	 2,9944	-2,8345	 2,9455
12.06.2026 12:58:54	-2,3622	 2,1476	 2,3564	 2,2505	 2,3177	 2,4097	-2,6513	 2,2899	-2,6630	-2,8163	-1,2570	 2,4527	-2,8528	-2,4170	 0,0000	 2,3082	-2,6761	 2,2702	-2,5834	 2,5987	 2,3082	 0,9665	 2,5206	-2,7104	 2,2870	 2,7542	-2,6170	 2,9097	 2,7506	 2,9893	-2,8440	 2,9550
12.06.2026 12:58:54	-2,3593	 2,1315	 2,3535	 2,2505	 2,3177	 2,4082	-2,6491	 2,2878	-2,6600	-2,8163	-1,2432	 2,4505	-2,8447	-2,4170	 0,0000	 2,3060	-2,6834	 2,2753	-2,5805	 2,5958	 2,3060	 0,9665	 2,5235	-2,7053	 2,2863	 2,6243	-2,6184	 2,8951	 2,7549	 2,9725	-2,8360	 2,9294
12.06.2026 12:58:54	-2,3586	 2,1381	 2,3454	 2,2505	 2,3162	 2,4024	-2,6498	 2,2848	-2,6542	-2,8075	-1,2366	 2,4432	-2,8367	-2,4170	 0,0000	 2,3089	-2,6652	 2,2768	-2,5776	 2,5936	 2,3045	 0,9672	 2,5184	-2,7024	 2,2834	 2,5024	-2,6549	 2,8995	 2,7265	 2,9929	-2,8542	 2,9484
12.06.2026 12:58:54	-2,3556	 2,1418	 2,3425	 2,2461	 2,3089	 2,3994	-2,6454	 2,2812	-2,6542	-2,8039	-1,2388	 2,4411	-2,8323	-2,4133	 0,0000	 2,3016	-2,6644	 2,2578	-2,5725	 2,5892	 2,3016	 0,9636	 2,5038	-2,6995	 2,2805	 2,3666	-2,7345	 2,9586	 2,6527	 3,0557	-2,9258	 3,0148
12.06.2026 12:58:54	-2,3556	 2,1315	 2,3425	 2,2418	 2,3082	 2,3951	-2,6433	 2,2805	-2,6535	-2,8053	-1,2410	 2,4396	-2,8389	-2,4111	 0,0000	 2,2987	-2,6608	 2,2622	-2,5746	 2,5871	 2,2980	 0,9621	 2,5075	-2,6965	 2,2783	 2,4243	-2,7082	 2,9542	 2,6761	 3,0513	-2,9207	 2,9958
12.06.2026 12:58:54	-2,3556	 2,1308	 2,3396	 2,2403	 2,3053	 2,3921	-2,6403	 2,2790	-2,6498	-2,8002	-1,2373	 2,4330	-2,8331	-2,4067	 0,0000	 2,2936	-2,6469	 2,2644	-2,5732	 2,5856	 2,2958	 0,9599	 2,5111	-2,6958	 2,2739	 2,6615	-2,6673	 2,9053	 2,7053	 3,0155	-2,8958	 2,9659
12.06.2026 12:58:54	-2,3476	 2,1294	 2,3374	 2,2410	 2,3045	 2,3914	-2,6367	 2,2775	-2,6454	-2,7987	-1,2424	 2,4352	-2,8287	-2,4046	 0,0000	 2,2907	-2,6652	 2,2571	-2,5695	 2,5841	 2,2929	 0,9577	 2,5097	-2,6922	 2,2717	 2,5484	-2,6739	 2,8761	 2,7038	 2,9958	-2,8812	 2,9572
12.06.2026 12:58:54	-2,3447	 2,1257	 2,3396	 2,2367	 2,3075	 2,3907	-2,6323	 2,2768	-2,6433	-2,7973	-1,2446	 2,4323	-2,8272	-2,4031	 0,0000	 2,2936	-2,6586	 2,2564	-2,5717	 2,5805	 2,2899	 0,9577	 2,5053	-2,6922	 2,2680	 2,6272	-2,6630	 2,8652	 2,7148	 2,9878	-2,8637	 2,9462
12.06.2026 12:58:54	-2,3403	 2,1264	 2,3345	 2,2316	 2,3016	 2,3914	-2,6294	 2,2746	-2,6462	-2,7951	-1,2322	 2,4279	-2,8199	-2,3987	 0,0000	 2,2841	-2,6352	 2,2520	-2,5666	 2,5790	 2,2878	 0,9570	 2,5031	-2,6900	 2,2666	 2,9557	-2,6622	 2,8601	 2,7301	 2,9696	-2,8550	 2,9469
12.06.2026 12:58:54	-2,3323	 2,1286	 2,3345	 2,2345	 2,3024	 2,3900	-2,6243	 2,2732	-2,6403	-2,7900	-1,2380	 2,4286	-2,8228	-2,3965	 0,0000	 2,2819	-2,6330	 2,2461	-2,5659	 2,5768	 2,2856	 0,9555	 2,4958	-2,6856	 2,2644	 3,1440	-2,6564	 2,8747	 2,7184	 2,9615	-2,8484	 2,9674
12.06.2026 12:58:54	-2,3221	 2,1191	 2,3359	 2,2294	 2,3075	 2,3914	-2,6221	 2,2717	-2,6367	-2,7893	-1,2322	 2,4323	-2,8221	-2,3951	 0,0000	 2,2848	-2,6272	 2,2476	-2,5608	 2,5739	 2,2841	 0,9570	 2,4885	-2,6819	 2,2622	 3,2068	-2,6513	 2,8725	 2,7104	 2,9564	-2,8615	 2,9703
12.06.2026 12:58:54	-2,3308	 2,1067	 2,3323	 2,2264	 2,2965	 2,3863	-2,6214	 2,2695	-2,6360	-2,7914	-1,2329	 2,4316	-2,8185	-2,3907	 0,0000	 2,2812	-2,6396	 2,2578	-2,5527	 2,5732	 2,2834	 0,9563	 2,5046	-2,6754	 2,2644	 3,0798	-2,6447	 2,8506	 2,7111	 2,9374	-2,8506	 2,9214
12.06.2026 12:58:54	-2,3447	 2,1177	 2,3286	 2,2286	 2,2899	 2,3805	-2,6199	 2,2666	-2,6301	-2,7827	-1,2351	 2,4265	-2,8301	-2,3870	 0,0000	 2,2790	-2,6374	 2,2513	-2,5506	 2,5695	 2,2819	 0,9548	 2,4987	-2,6725	 2,2644	 2,9579	-2,6476	 2,8338	 2,7038	 2,9236	-2,8367	 2,9024
12.06.2026 12:58:54	-2,3440	 2,1250	 2,3228	 2,2250	 2,2921	 2,3746	-2,6184	 2,2644	-2,6279	-2,7776	-1,2286	 2,4250	-2,8272	-2,3907	 0,0000	 2,2783	-2,6235	 2,2527	-2,5469	 2,5666	 2,2790	 0,9570	 2,4987	-2,6695	 2,2637	 2,8155	-2,6484	 2,8272	 2,7192	 2,9228	-2,8272	 2,9046
12.06.2026 12:58:54	-2,3381	 2,1213	 2,3170	 2,2213	 2,2885	 2,3673	-2,6148	 2,2607	-2,6265	-2,7739	-1,2213	 2,4177	-2,8104	-2,3885	 0,0000	 2,2775	-2,6257	 2,2710	-2,5506	 2,5637	 2,2761	 0,9592	 2,5038	-2,6681	 2,2622	 2,8652	-2,6214	 2,8250	 2,7418	 2,9243	-2,8177	 2,8871
12.06.2026 12:58:54	-2,3228	 2,1184	 2,3133	 2,2199	 2,2863	 2,3732	-2,6177	 2,2600	-2,6214	-2,7674	-1,2198	 2,4170	-2,8075	-2,3841	 0,0000	 2,2761	-2,6374	 2,2418	-2,5506	 2,5586	 2,2724	 0,9585	 2,4783	-2,6688	 2,2564	 3,0163	-2,6082	 2,8068	 2,7491	 2,9097	-2,8141	 2,8834
12.06.2026 12:58:54	-2,3148	 2,1133	 2,3162	 2,2191	 2,2899	 2,3754	-2,6141	 2,2600	-2,6177	-2,7666	-1,2286	 2,4192	-2,8097	-2,3834	 0,0000	 2,2775	-2,6447	 2,2337	-2,5433	 2,5564	 2,2673	 0,9519	 2,4863	-2,6681	 2,2527	 2,8878	-2,6119	 2,8075	 2,7433	 2,9068	-2,8272	 2,8812
12.06.2026 12:58:54	-2,3162	 2,1140	 2,3155	 2,2170	 2,2848	 2,3666	-2,6075	 2,2571	-2,6162	-2,7637	-1,2264	 2,4126	-2,8155	-2,3819	 0,0000	 2,2826	-2,6228	 2,2359	-2,5447	 2,5513	 2,2651	 0,9504	 2,4878	-2,6695	 2,2498	 3,0112	-2,6090	 2,7966	 2,7469	 2,8966	-2,8477	 2,8666
12.06.2026 12:58:54	-2,3162	 2,1082	 2,3140	 2,2170	 2,2775	 2,3622	-2,6031	 2,2564	-2,6133	-2,7652	-1,2242	 2,4082	-2,8104	-2,3805	 0,0000	 2,2863	-2,6111	 2,2221	-2,5469	 2,5484	 2,2600	 0,9512	 2,4746	-2,6688	 2,2469	 3,3601	-2,6075	 2,7630	 2,7411	 2,8652	-2,8550	 2,8411
12.06.2026 12:58:54	-2,3111	 2,1089	 2,3082	 2,2162	 2,2790	 2,3615	-2,6060	 2,2527	-2,6082	-2,7593	-1,2103	 2,4097	-2,8053	-2,3797	 0,0000	 2,2768	-2,6068	 2,2389	-2,5411	 2,5462	 2,2600	 0,9548	 2,4856	-2,6644	 2,2505	 3,4951	-2,6068	 2,7367	 2,7535	 2,8367	-2,8352	 2,8345
12.06.2026 12:58:54	-2,3082	 2,1060	 2,3038	 2,2133	 2,2775	 2,3586	-2,6090	 2,2498	-2,6060	-2,7564	-1,2096	 2,4089	-2,7922	-2,3761	 0,0000	 2,2659	-2,6075	 2,2389	-2,5345	 2,5447	 2,2600	 0,9555	 2,4827	-2,6600	 2,2483	 3,4959	-2,5914	 2,7272	 2,7674	 2,8199	-2,8192	 2,8316
12.06.2026 12:58:54	-2,3089	 2,0972	 2,3082	 2,2104	 2,2732	 2,3600	-2,5995	 2,2491	-2,6046	-2,7542	-1,2118	 2,4060	-2,7885	-2,3724	 0,0000	 2,2666	-2,6126	 2,2367	-2,5316	 2,5433	 2,2564	 0,9548	 2,4819	-2,6571	 2,2469	 3,3309	-2,5841	 2,7192	 2,7688	 2,8002	-2,8338	 2,7900
12.06.2026 12:58:54	-2,3097	 2,0972	 2,2994	 2,2024	 2,2746	 2,3571	-2,6009	 2,2440	-2,6046	-2,7506	-1,2081	 2,4089	-2,7900	-2,3710	 0,0000	 2,2659	-2,6024	 2,2432	-2,5221	 2,5418	 2,2571	 0,9563	 2,4878	-2,6520	 2,2483	 3,1506	-2,5827	 2,7053	 2,7674	 2,7827	-2,8309	 2,7725
12.06.2026 12:58:54	-2,3031	 2,1016	 2,2958	 2,2002	 2,2761	 2,3556	-2,6002	 2,2418	-2,6024	-2,7469	-1,2074	 2,4126	-2,7798	-2,3673	 0,0000	 2,2629	-2,5995	 2,2389	-2,5155	 2,5411	 2,2542	 0,9555	 2,4827	-2,6484	 2,2469	 2,9608	-2,5812	 2,6958	 2,7535	 2,7710	-2,8228	 2,7695
12.06.2026 12:58:54	-2,2951	 2,1082	 2,3024	 2,2038	 2,2695	 2,3556	-2,5929	 2,2410	-2,5980	-2,7440	-1,2067	 2,4082	-2,7966	-2,3644	 0,0000	 2,2593	-2,5951	 2,2316	-2,5170	 2,5360	 2,2505	 0,9541	 2,4768	-2,6484	 2,2440	 2,9513	-2,5688	 2,6798	 2,7790	 2,7681	-2,8082	 2,7513
12.06.2026 12:58:54	-2,3002	 2,0987	 2,2958	 2,2031	 2,2637	 2,3491	-2,5929	 2,2381	-2,5936	-2,7425	-1,2074	 2,4002	-2,8053	-2,3629	 0,0000	 2,2564	-2,5958	 2,2184	-2,5199	 2,5316	 2,2469	 0,9526	 2,4703	-2,6491	 2,2389	 3,0506	-2,5557	 2,6593	 2,7798	 2,7703	-2,8009	 2,7382
12.06.2026 12:58:54	-2,2994	 2,0929	 2,2907	 2,1987	 2,2629	 2,3454	-2,5936	 2,2359	-2,5907	-2,7389	-1,2015	 2,3973	-2,7885	-2,3637	 0,0000	 2,2578	-2,5929	 2,2213	-2,5192	 2,5279	 2,2440	 0,9534	 2,4703	-2,6476	 2,2381	 2,8564	-2,5447	 2,6615	 2,7666	 2,7615	-2,8141	 2,7316
12.06.2026 12:58:54	-2,2907	 2,0987	 2,2907	 2,1987	 2,2651	 2,3476	-2,5863	 2,2352	-2,5878	-2,7352	-1,2001	 2,3987	-2,7798	-2,3615	 0,0000	 2,2542	-2,5936	 2,2199	-2,5192	 2,5228	 2,2403	 0,9519	 2,4673	-2,6476	 2,2352	 2,8922	-2,5214	 2,6484	 2,7812	 2,7462	-2,8046	 2,7017
12.06.2026 12:58:54	-2,2972	 2,1016	 2,2834	 2,1951	 2,2600	 2,3440	-2,5849	 2,2316	-2,5834	-2,7301	-1,2001	 2,3943	-2,7732	-2,3586	 0,0000	 2,2556	-2,6017	 2,2213	-2,5199	 2,5199	 2,2389	 0,9526	 2,4644	-2,6469	 2,2308	 3,1448	-2,5060	 2,6338	 2,7936	 2,7309	-2,8017	 2,6819
12.06.2026 12:58:54	-2,3082	 2,0826	 2,2746	 2,1826	 2,2542	 2,3337	-2,5892	 2,2264	-2,5892	-2,7403	-1,2074	 2,3885	-2,7754	-2,3600	 0,0000	 2,2695	-2,5936	 2,2206	-2,5177	 2,5177	 2,2389	 0,9563	 2,4608	-2,6447	 2,2323	 3,2382	-2,4936	 2,6476	 2,7907	 2,7323	-2,8053	 2,6922
12.06.2026 12:58:54	-2,2951	 2,0761	 2,2753	 2,1856	 2,2549	 2,3367	-2,5827	 2,2264	-2,5849	-2,7338	-1,2037	 2,3870	-2,7747	-2,3556	 0,0000	 2,2520	-2,5900	 2,2075	-2,5148	 2,5155	 2,2352	 0,9519	 2,4505	-2,6433	 2,2279	 3,1995	-2,4666	 2,6520	 2,7849	 2,7352	-2,7747	 2,6871
12.06.2026 12:58:54	-2,2878	 2,0863	 2,2739	 2,1863	 2,2527	 2,3345	-2,5812	 2,2250	-2,5798	-2,7250	-1,1957	 2,3878	-2,7644	-2,3520	 0,0000	 2,2337	-2,5761	 2,2162	-2,5038	 2,5177	 2,2352	 0,9497	 2,4593	-2,6360	 2,2286	 2,9630	-2,4593	 2,6535	 2,7754	 2,7309	-2,7630	 2,6958
12.06.2026 12:58:54	-2,2878	 2,0797	 2,2710	 2,1856	 2,2527	 2,3264	-2,5849	 2,2213	-2,5783	-2,7243	-1,1906	 2,3885	-2,7659	-2,3513	 0,0000	 2,2410	-2,5790	 2,2213	-2,5002	 2,5148	 2,2330	 0,9504	 2,4600	-2,6330	 2,2279	 2,7630	-2,4206	 2,5973	 2,8002	 2,6907	-2,7177	 2,6447
12.06.2026 12:58:54	-2,2753	 2,0768	 2,2768	 2,1863	 2,2527	 2,3337	-2,5768	 2,2213	-2,5732	-2,7228	-1,1979	 2,3827	-2,7622	-2,3491	 0,0000	 2,2418	-2,5834	 2,2038	-2,5024	 2,5097	 2,2294	 0,9490	 2,4476	-2,6338	 2,2228	 2,5403	-2,3586	 2,5440	 2,8440	 2,6476	-2,6579	 2,5841
12.06.2026 12:58:54	-2,2805	 2,0761	 2,2783	 2,1812	 2,2505	 2,3308	-2,5732	 2,2191	-2,5732	-2,7214	-1,2030	 2,3819	-2,7593	-2,3462	 0,0000	 2,2389	-2,5615	 2,1892	-2,5002	 2,5075	 2,2286	 0,9475	 2,4403	-2,6316	 2,2199	 2,5257	-2,3761	 2,5622	 2,8155	 2,6564	-2,6892	 2,6046
12.06.2026 12:58:54	-2,2673	 2,0783	 2,2761	 2,1790	 2,2534	 2,3272	-2,5717	 2,2170	-2,5717	-2,7141	-1,1935	 2,3812	-2,7593	-2,3447	 0,0000	 2,2352	-2,5681	 2,1929	-2,4995	 2,5038	 2,2250	 0,9439	 2,4381	-2,6316	 2,2140	 2,6841	-2,4111	 2,5783	 2,7907	 2,6710	-2,7053	 2,6294
12.06.2026 12:58:54	-2,2637	 2,0724	 2,2688	 2,1724	 2,2476	 2,3235	-2,5710	 2,2140	-2,5717	-2,7141	-1,2001	 2,3732	-2,7571	-2,3425	 0,0000	 2,2323	-2,5622	 2,1965	-2,5002	 2,5024	 2,2228	 0,9439	 2,4418	-2,6272	 2,2126	 2,5418	-2,4272	 2,5936	 2,7820	 2,6907	-2,7060	 2,6425
12.06.2026 12:58:54	-2,2761	 2,0717	 2,2600	 2,1710	 2,2367	 2,3170	-2,5739	 2,2097	-2,5681	-2,7104	-1,1950	 2,3681	-2,7579	-2,3403	 0,0000	 2,2308	-2,5586	 2,1972	-2,5016	 2,5002	 2,2221	 0,9424	 2,4396	-2,6243	 2,2111	 2,6126	-2,4440	 2,5987	 2,7593	 2,7009	-2,7250	 2,6454
12.06.2026 12:58:54	-2,2783	 2,0688	 2,2542	 2,1688	 2,2330	 2,3126	-2,5725	 2,2060	-2,5652	-2,7090	-1,1899	 2,3644	-2,7644	-2,3389	 0,0000	 2,2264	-2,5673	 2,1958	-2,5031	 2,4980	 2,2184	 0,9409	 2,4374	-2,6214	 2,2089	 2,9170	-2,4593	 2,6068	 2,7440	 2,6914	-2,7177	 2,6593
12.06.2026 12:58:54	-2,2848	 2,0629	 2,2505	 2,1666	 2,2272	 2,3075	-2,5710	 2,2038	-2,5644	-2,7046	-1,1928	 2,3600	-2,7630	-2,3352	 0,0000	 2,2264	-2,5542	 2,1965	-2,4951	 2,4987	 2,2184	 0,9417	 2,4374	-2,6170	 2,2089	 3,0623	-2,4695	 2,6214	 2,7323	 2,7002	-2,7155	 2,6965
12.06.2026 12:58:54	-2,2732	 2,0600	 2,2527	 2,1629	 2,2279	 2,3104	-2,5666	 2,2038	-2,5622	-2,7075	-1,1877	 2,3564	-2,7484	-2,3330	 0,0000	 2,2235	-2,5549	 2,1914	-2,4870	 2,4958	 2,2162	 0,9409	 2,4330	-2,6141	 2,2067	 3,0681	-2,4564	 2,6141	 2,7279	 2,7060	-2,7250	 2,7038
12.06.2026 12:58:54	-2,2659	 2,0549	 2,2491	 2,1549	 2,2337	 2,3045	-2,5652	 2,2002	-2,5600	-2,7068	-1,1877	 2,3571	-2,7593	-2,3316	 0,0000	 2,2206	-2,5549	 2,1943	-2,4885	 2,4936	 2,2148	 0,9431	 2,4359	-2,6082	 2,2075	 2,9155	-2,4651	 2,6177	 2,7119	 2,7053	-2,7345	 2,6878
12.06.2026 12:58:54	-2,2659	 2,0585	 2,2461	 2,1527	 2,2308	 2,3075	-2,5608	 2,1972	-2,5593	-2,7017	-1,1855	 2,3549	-2,7674	-2,3279	 0,0000	 2,2206	-2,5535	 2,2016	-2,4827	 2,4943	 2,2126	 0,9417	 2,4381	-2,6024	 2,2053	 2,8177	-2,4768	 2,6323	 2,6892	 2,7184	-2,7360	 2,7068
12.06.2026 12:58:54	-2,2680	 2,0622	 2,2469	 2,1542	 2,2264	 2,3031	-2,5513	 2,1958	-2,5571	-2,7017	-1,1877	 2,3513	-2,7528	-2,3257	 0,0000	 2,2177	-2,5586	 2,1841	-2,4768	 2,4914	 2,2097	 0,9402	 2,4250	-2,5995	 2,2031	 2,6761	-2,4841	 2,6381	 2,6527	 2,7236	-2,7542	 2,7097
12.06.2026 12:58:54	-2,2732	 2,0542	 2,2418	 2,1527	 2,2170	 2,2907	-2,5513	 2,1936	-2,5535	-2,6951	-1,1913	 2,3447	-2,7433	-2,3228	 0,0000	 2,2155	-2,5491	 2,1790	-2,4790	 2,4878	 2,2067	 0,9388	 2,4184	-2,5987	 2,2009	 2,7250	-2,4995	 2,6440	 2,6323	 2,7236	-2,7827	 2,6995
12.06.2026 12:58:54	-2,2666	 2,0556	 2,2367	 2,1476	 2,2155	 2,2929	-2,5549	 2,1907	-2,5527	-2,6951	-1,1869	 2,3410	-2,7360	-2,3221	 0,0000	 2,2118	-2,5462	 2,1805	-2,4790	 2,4863	 2,2045	 0,9380	 2,4228	-2,5965	 2,1980	 2,9353	-2,5104	 2,6418	 2,6279	 2,7206	-2,7980	 2,7097
12.06.2026 12:58:54	-2,2651	 2,0600	 2,2308	 2,1440	 2,2148	 2,2870	-2,5571	 2,1878	-2,5498	-2,6907	-1,1818	 2,3389	-2,7382	-2,3213	 0,0000	 2,2097	-2,5454	 2,1680	-2,4776	 2,4849	 2,2031	 0,9388	 2,4184	-2,5922	 2,1958	 2,8265	-2,5235	 2,6454	 2,6119	 2,7199	-2,8075	 2,7111
12.06.2026 12:58:54	-2,2564	 2,0439	 2,2301	 2,1403	 2,2053	 2,2892	-2,5549	 2,1856	-2,5469	-2,6892	-1,1775	 2,3316	-2,7352	-2,3191	 0,0000	 2,2067	-2,5411	 2,1870	-2,4761	 2,4819	 2,2002	 0,9380	 2,4228	-2,5907	 2,1943	 2,9119	-2,5206	 2,6564	 2,6002	 2,7104	-2,7995	 2,7009
12.06.2026 12:58:54	-2,2527	 2,0345	 2,2272	 2,1410	 2,2045	 2,2892	-2,5476	 2,1841	-2,5447	-2,6907	-1,1818	 2,3301	-2,7265	-2,3148	 0,0000	 2,2024	-2,5440	 2,1746	-2,4724	 2,4805	 2,1987	 0,9351	 2,4162	-2,5878	 2,1914	 3,1929	-2,5557	 2,6695	 2,5586	 2,7163	-2,8221	 2,7177
12.06.2026 12:58:54	-2,2549	 2,0461	 2,2264	 2,1440	 2,2045	 2,2878	-2,5440	 2,1826	-2,5396	-2,6827	-1,1796	 2,3308	-2,7250	-2,3111	 0,0000	 2,2024	-2,5396	 2,1600	-2,4688	 2,4790	 2,1958	 0,9336	 2,4075	-2,5841	 2,1899	 3,3645	-2,5849	 2,6841	 2,5301	 2,7272	-2,8520	 2,7469
12.06.2026 12:58:54	-2,2564	 2,0439	 2,2264	 2,1403	 2,2053	 2,2819	-2,5447	 2,1790	-2,5374	-2,6805	-1,1709	 2,3330	-2,7214	-2,3140	 0,0000	 2,2024	-2,5396	 2,1797	-2,4637	 2,4768	 2,1951	 0,9351	 2,4162	-2,5805	 2,1914	 3,4083	-2,5812	 2,6841	 2,5316	 2,7119	-2,8571	 2,7455
12.06.2026 12:58:54	-2,2542	 2,0381	 2,2235	 2,1374	 2,2038	 2,2797	-2,5411	 2,1768	-2,5360	-2,6834	-1,1833	 2,3323	-2,7294	-2,3097	 0,0000	 2,2002	-2,5396	 2,1717	-2,4593	 2,4761	 2,1943	 0,9344	 2,4126	-2,5761	 2,1892	 3,2477	-2,5608	 2,6798	 2,5491	 2,7068	-2,8425	 2,7360
12.06.2026 12:58:54	-2,2461	 2,0359	 2,2243	 2,1381	 2,2031	 2,2812	-2,5381	 2,1746	-2,5316	-2,6805	-1,1811	 2,3272	-2,7294	-2,3053	 0,0000	 2,1987	-2,5389	 2,1637	-2,4571	 2,4746	 2,1914	 0,9322	 2,4075	-2,5725	 2,1856	 3,1134	-2,5447	 2,6783	 2,5506	 2,6980	-2,8236	 2,7287
12.06.2026 12:58:54	-2,2454	 2,0454	 2,2191	 2,1345	 2,2045	 2,2761	-2,5360	 2,1710	-2,5323	-2,6739	-1,1738	 2,3301	-2,7119	-2,3045	 0,0000	 2,1965	-2,5323	 2,1651	-2,4505	 2,4724	 2,1907	 0,9315	 2,4046	-2,5681	 2,1856	 2,9893	-2,5396	 2,6754	 2,5433	 2,7053	-2,7966	 2,7309
12.06.2026 12:58:54	-2,2461	 2,0396	 2,2148	 2,1315	 2,2002	 2,2732	-2,5338	 2,1688	-2,5323	-2,6725	-1,1723	 2,3294	-2,7053	-2,3009	 0,0000	 2,1914	-2,5287	 2,1666	-2,4469	 2,4710	 2,1892	 0,9315	 2,4046	-2,5652	 2,1841	 3,0177	-2,5250	 2,6681	 2,5469	 2,7148	-2,7798	 2,7316
12.06.2026 12:58:54	-2,2440	 2,0220	 2,2170	 2,1330	 2,1951	 2,2702	-2,5316	 2,1680	-2,5250	-2,6717	-1,1723	 2,3206	-2,7097	-2,2980	 0,0000	 2,1914	-2,5418	 2,1593	-2,4491	 2,4681	 2,1848	 0,9300	 2,3958	-2,5644	 2,1797	 3,1491	-2,5250	 2,6630	 2,5491	 2,7090	-2,7849	 2,7469
12.06.2026 12:58:54	-2,2396	 2,0257	 2,2184	 2,1315	 2,1958	 2,2724	-2,5235	 2,1673	-2,5228	-2,6681	-1,1723	 2,3184	-2,7192	-2,2943	 0,0000	 2,1892	-2,5396	 2,1571	-2,4491	 2,4644	 2,1826	 0,9278	 2,3958	-2,5637	 2,1761	 3,0491	-2,5097	 2,6549	 2,5564	 2,7075	-2,7768	 2,7528
12.06.2026 12:58:54	-2,2316	 2,0133	 2,2140	 2,1257	 2,1936	 2,2717	-2,5235	 2,1644	-2,5235	-2,6710	-1,1716	 2,3191	-2,7206	-2,2929	 0,0000	 2,1870	-2,5360	 2,1520	-2,4484	 2,4622	 2,1805	 0,9293	 2,3870	-2,5630	 2,1753	 3,0666	-2,5046	 2,6615	 2,5637	 2,7155	-2,7790	 2,7360
