%%%%%%%%%%%%%%%%%%%%%%%%%%%%%%%%%%%%%%%%%%%%%%%%%%%%%%%%%%%%%%%%%%%%%%%%%%%%%%%%%%%%%%%%%%%%%%%%%%%%%%%%%%%%%%%%%%%%%%%%%%%%%%%%%%%%%%%%%%%%%%%%%%%%%%%%%%%%%%%%%%%%%%%%%%%%%%%%%%%%%%%%%%%%%%%%%%%%%%%%%%%%%%%%%%%%%%%%%%%%%%%%%%%%%%%%%%%%%%%%%%%%%%%%%%%%%%%%%%%%%%%%%%%%%%%%%%%%%%%%%%%%%%%%%%%%%%%%%%%%%%%%%%%%%%%%%%%%%%%%%%%%%%%%%%%%%%%
% Original Record Key:	f4cf522b-7d65-4f17-a51e-d59b99440df2
% Original ChartItem Key:	fe7c9e3d-e25d-4a80-a0a3-7136dbd7655e
% Original file start/end time:	12.06.2026 10:29:09	12.06.2026 10:49:26
% Exported file start/end time:	12.06.2026 10:29:09	12.06.2026 10:29:39
% Units:	mV
%%%%%%%%%%%%%%%%%%%%%%%%%%%%%%%%%%%%%%%%%%%%%%%%%%%%%%%%%%%%%%%%%%%%%%%%%%%%%%%%%%%%%%%%%%%%%%%%%%%%%%%%%%%%%%%%%%%%%%%%%%%%%%%%%%%%%%%%%%%%%%%%%%%%%%%%%%%%%%%%%%%%%%%%%%%%%%%%%%%%%%%%%%%%%%%%%%%%%%%%%%%%%%%%%%%%%%%%%%%%%%%%%%%%%%%%%%%%%%%%%%%%%%%%%%%%%%%%%%%%%%%%%%%%%%%%%%%%%%%%%%%%%%%%%%%%%%%%%%%%%%%%%%%%%%%%%%%%%%%%%%%%%%%%%%%%%%%
% Patient's Name:	Testesen, test 
% Sampling Rate	500 Hz
% Channels	39
% Patient ID Study ID	123456789 Standard-EEG (Essentia)
% Date.Time	 E1/Pg1	 E2/Pg2	    Fp1	    Fp2	     T1	     F7	     F3	     Fz	     F4	     F8	     T2	     A1	     T7	     C3	     Cz	     C4	     T8	     A2	     P7	     P3	     Pz	     P4	     P8	     O1	     O2	     1A	     1A	     2A	     2A	     3A	     3A	     4A	     4A	     5A	     5A	     6A	     6A	     7A	     7A	
%%%%%%%%%%%%%%%%%%%%%%%%%%%%%%%%%%%%%%%%%%%%%%%%%%%%%%%%%%%%%%%%%%%%%%%%%%%%%%%%%%%%%%%%%%%%%%%%%%%%%%%%%%%%%%%%%%%%%%%%%%%%%%%%%%%%%%%%%%%%%%%%%%%%%%%%%%%%%%%%%%%%%%%%%%%%%%%%%%%%%%%%%%%%%%%%%%%%%%%%%%%%%%%%%%%%%%%%%%%%%%%%%%%%%%%%%%%%%%%%%%%%%%%%%%%%%%%%%%%%%%%%%%%%%%%%%%%%%%%%%%%%%%%%%%%%%%%%%%%%%%%%%%%%%%%%%%%%%%%%%%%%%%%%%%%%%%%
12.06.2026 10:29:10	-0,7037	 1,2490	 0,5008	 1,4665	 1,6753	 0,6000	-0,7606	 1,1979	-0,2475	-0,7504	-0,2285	 1,2826	 0,1971	-0,8898	 0,0000	 0,9307	-0,5833	 1,2242	-0,1088	 1,4454	 0,8847	 0,5278	 1,0848	-0,1672	 1,4030	 2,0089	-0,0723	 2,5834	 0,3278	 2,5433	 0,1234	 1,3804
12.06.2026 10:29:10	-0,7183	 1,2548	 0,5073	 1,4746	 1,6695	 0,6008	-0,7577	 1,1986	-0,2453	-0,7460	-0,2241	 1,2738	 0,1934	-0,8862	 0,0000	 0,9293	-0,5760	 1,2286	-0,1000	 1,4468	 0,8847	 0,5278	 1,0840	-0,1672	 1,4008	 2,0191	-0,0489	 2,5571	 0,3592	 2,5228	 0,1226	 1,3592
12.06.2026 10:29:10	-0,7198	 1,2570	 0,5139	 1,4855	 1,6892	 0,5920	-0,7614	 1,1994	-0,2402	-0,7344	-0,2168	 1,2775	 0,1927	-0,8877	 0,0000	 0,9300	-0,5913	 1,2337	-0,1117	 1,4446	 0,8833	 0,5270	 1,0796	-0,1701	 1,3965	 2,0542	-0,0321	 2,5542	 0,3723	 2,5250	 0,1321	 1,3300
12.06.2026 10:29:10	-0,7037	 1,2286	 0,5234	 1,4870	 1,6738	 0,5979	-0,7519	 1,2001	-0,2402	-0,7387	-0,2336	 1,2716	 0,2146	-0,8774	 0,0000	 0,9263	-0,6000	 1,2242	-0,1015	 1,4483	 0,8847	 0,5249	 1,0753	-0,1672	 1,3928	 2,0688	-0,0409	 2,5754	 0,3708	 2,5279	 0,1321	 1,3454
12.06.2026 10:29:10	-0,7015	 1,2293	 0,5358	 1,4921	 1,6680	 0,6110	-0,7468	 1,2030	-0,2365	-0,7358	-0,2226	 1,2745	 0,2197	-0,8804	 0,0000	 0,9263	-0,5694	 1,2293	-0,1000	 1,4403	 0,8840	 0,5263	 1,0796	-0,1642	 1,3928	 2,0950	-0,0650	 2,6031	 0,3358	 2,5418	 0,1124	 1,3621
12.06.2026 10:29:10	-0,7154	 1,2453	 0,5431	 1,5074	 1,6797	 0,6117	-0,7439	 1,2037	-0,2307	-0,7241	-0,2153	 1,2745	 0,2073	-0,8796	 0,0000	 0,9271	-0,5548	 1,2322	-0,1110	 1,4359	 0,8833	 0,5278	 1,0804	-0,1657	 1,3892	 2,1272	-0,0832	 2,6484	 0,3132	 2,5695	 0,1073	 1,3921
12.06.2026 10:29:10	-0,7176	 1,2475	 0,5511	 1,5169	 1,6731	 0,5957	-0,7424	 1,2030	-0,2278	-0,7220	-0,2117	 1,2738	 0,2066	-0,8716	 0,0000	 0,9278	-0,5570	 1,2242	-0,1088	 1,4388	 0,8840	 0,5278	 1,0767	-0,1642	 1,3884	 2,1053	-0,0905	 2,6440	 0,3051	 2,5746	 0,1117	 1,3892
12.06.2026 10:29:10	-0,7314	 1,2446	 0,5497	 1,5154	 1,6585	 0,5913	-0,7431	 1,2008	-0,2292	-0,7263	-0,2292	 1,2643	 0,1745	-0,8745	 0,0000	 0,9256	-0,5650	 1,2220	-0,1102	 1,4373	 0,8833	 0,5278	 1,0767	-0,1635	 1,3899	 2,0870	-0,0277	 2,5746	 0,3672	 2,5294	 0,1628	 1,3220
12.06.2026 10:29:10	-0,7205	 1,2490	 0,5431	 1,5089	 1,6476	 0,5949	-0,7373	 1,2001	-0,2307	-0,7263	-0,2372	 1,2607	 0,1599	-0,8672	 0,0000	 0,9220	-0,5708	 1,2205	-0,1080	 1,4330	 0,8811	 0,5256	 1,0753	-0,1628	 1,3906	 2,1023	-0,0036	 2,5287	 0,3986	 2,5111	 0,1964	 1,3030
12.06.2026 10:29:10	-0,6869	 1,2570	 0,5526	 1,5147	 1,6556	 0,5906	-0,7417	 1,1979	-0,2278	-0,7205	-0,2248	 1,2658	 0,2007	-0,8731	 0,0000	 0,9234	-0,5606	 1,2176	-0,0993	 1,4344	 0,8818	 0,5292	 1,0760	-0,1599	 1,3921	 2,0695	-0,0117	 2,5170	 0,3752	 2,5199	 0,1847	 1,3045
12.06.2026 10:29:10	-0,6942	 1,2497	 0,5694	 1,5169	 1,6651	 0,6095	-0,7395	 1,1979	-0,2285	-0,7234	-0,2343	 1,2629	 0,2088	-0,8796	 0,0000	 0,9227	-0,5577	 1,2132	-0,0920	 1,4403	 0,8825	 0,5292	 1,0767	-0,1569	 1,3928	 2,0104	-0,0036	 2,5287	 0,3796	 2,5206	 0,1883	 1,3132
12.06.2026 10:29:10	-0,7044	 1,2526	 0,5833	 1,5264	 1,6644	 0,6110	-0,7271	 1,1994	-0,2212	-0,7227	-0,2132	 1,2636	 0,2212	-0,8731	 0,0000	 0,9205	-0,5657	 1,2132	-0,1102	 1,4235	 0,8789	 0,5263	 1,0731	-0,1606	 1,3921	 2,0082	-0,0234	 2,5418	 0,3679	 2,5250	 0,1759	 1,3125
12.06.2026 10:29:10	-0,7139	 1,2439	 0,5869	 1,5403	 1,6519	 0,6052	-0,7263	 1,1979	-0,2190	-0,7139	-0,2168	 1,2570	 0,2168	-0,8723	 0,0000	 0,9212	-0,5635	 1,2161	-0,1110	 1,4257	 0,8811	 0,5292	 1,0753	-0,1584	 1,3935	 2,0250	-0,0277	 2,5360	 0,3723	 2,5170	 0,1715	 1,2891
12.06.2026 10:29:10	-0,7001	 1,2322	 0,5884	 1,5381	 1,6585	 0,6103	-0,7285	 1,1964	-0,2197	-0,7110	-0,2234	 1,2614	 0,2029	-0,8752	 0,0000	 0,9220	-0,5570	 1,2096	-0,1000	 1,4300	 0,8825	 0,5300	 1,0753	-0,1518	 1,3935	 2,0388	-0,0204	 2,5367	 0,3533	 2,5214	 0,1460	 1,3030
12.06.2026 10:29:10	-0,6935	 1,2234	 0,5920	 1,5330	 1,6534	 0,6088	-0,7278	 1,1928	-0,2205	-0,7147	-0,2241	 1,2607	 0,1986	-0,8731	 0,0000	 0,9205	-0,5577	 1,2096	-0,0985	 1,4271	 0,8811	 0,5300	 1,0738	-0,1504	 1,3928	 2,0695	-0,0051	 2,5367	 0,3431	 2,5272	 0,1299	 1,3220
12.06.2026 10:29:10	-0,6993	 1,2205	 0,5906	 1,5344	 1,6446	 0,6059	-0,7263	 1,1913	-0,2212	-0,7147	-0,2205	 1,2505	 0,1883	-0,8687	 0,0000	 0,9176	-0,5577	 1,2147	-0,0985	 1,4286	 0,8818	 0,5300	 1,0731	-0,1496	 1,3935	 2,1023	 0,0051	 2,5177	 0,3592	 2,5177	 0,1409	 1,3286
12.06.2026 10:29:10	-0,6964	 1,2234	 0,5898	 1,5308	 1,6366	 0,6008	-0,7249	 1,1884	-0,2241	-0,7198	-0,2190	 1,2578	 0,1971	-0,8599	 0,0000	 0,9139	-0,5657	 1,2088	-0,0781	 1,4315	 0,8804	 0,5263	 1,0672	-0,1475	 1,3906	 2,0746	 0,0080	 2,5046	 0,3562	 2,5206	 0,1416	 1,3045
12.06.2026 10:29:10	-0,6964	 1,2242	 0,5957	 1,5271	 1,6395	 0,6052	-0,7205	 1,1869	-0,2248	-0,7212	-0,2256	 1,2578	 0,1942	-0,8577	 0,0000	 0,9117	-0,5643	 1,2015	-0,0825	 1,4308	 0,8782	 0,5256	 1,0665	-0,1482	 1,3877	 2,0366	 0,0000	 2,5301	 0,3635	 2,5257	 0,1548	 1,2943
12.06.2026 10:29:10	-0,6855	 1,2264	 0,6015	 1,5337	 1,6512	 0,6183	-0,7139	 1,1899	-0,2183	-0,7117	-0,2205	 1,2570	 0,2022	-0,8621	 0,0000	 0,9132	-0,5592	 1,2037	-0,1131	 1,4169	 0,8745	 0,5256	 1,0658	-0,1518	 1,3848	 2,0505	-0,0153	 2,5360	 0,3497	 2,5155	 0,1496	 1,3220
12.06.2026 10:29:10	-0,6796	 1,2271	 0,6008	 1,5344	 1,6410	 0,6241	-0,7095	 1,1891	-0,2168	-0,7066	-0,2212	 1,2672	 0,2292	-0,8650	 0,0000	 0,9147	-0,5606	 1,2030	-0,1000	 1,4169	 0,8745	 0,5263	 1,0650	-0,1489	 1,3870	 2,0162	-0,0190	 2,5367	 0,3460	 2,5148	 0,1518	 1,3213
12.06.2026 10:29:10	-0,7066	 1,2183	 0,5854	 1,5242	 1,6286	 0,5840	-0,7234	 1,1840	-0,2190	-0,7103	-0,2190	 1,2475	 0,1978	-0,8555	 0,0000	 0,9125	-0,5577	 1,1979	-0,0883	 1,4227	 0,8760	 0,5256	 1,0658	-0,1475	 1,3877	 1,9563	-0,0117	 2,5389	 0,3635	 2,5133	 0,1715	 1,3337
12.06.2026 10:29:10	-0,7117	 1,2052	 0,5840	 1,5184	 1,6403	 0,5862	-0,7234	 1,1789	-0,2226	-0,7161	-0,2299	 1,2395	 0,1971	-0,8497	 0,0000	 0,9081	-0,5570	 1,2015	-0,0993	 1,4220	 0,8767	 0,5241	 1,0658	-0,1445	 1,3877	 1,9527	-0,0175	 2,5243	 0,3628	 2,5206	 0,1767	 1,3388
12.06.2026 10:29:10	-0,6906	 1,2059	 0,5920	 1,5191	 1,6505	 0,6227	-0,7147	 1,1775	-0,2226	-0,7190	-0,2292	 1,2475	 0,2037	-0,8694	 0,0000	 0,9088	-0,5526	 1,1986	-0,0533	 1,4213	 0,8774	 0,5270	 1,0658	-0,1350	 1,3892	 1,9651	-0,0255	 2,5097	 0,3767	 2,5192	 0,1788	 1,3110
12.06.2026 10:29:10	-0,7117	 1,1986	 0,5796	 1,5140	 1,6184	 0,5913	-0,7198	 1,1731	-0,2278	-0,7190	-0,2248	 1,2388	 0,1869	-0,8585	 0,0000	 0,9044	-0,5584	 1,1899	-0,0599	 1,4198	 0,8752	 0,5234	 1,0592	-0,1365	 1,3833	 1,9673	-0,0314	 2,4951	 0,3628	 2,5148	 0,1730	 1,3081
12.06.2026 10:29:10	-0,7168	 1,1928	 0,5723	 1,5074	 1,6162	 0,5548	-0,7081	 1,1723	-0,2278	-0,7212	-0,2270	 1,2351	 0,1971	-0,8468	 0,0000	 0,9001	-0,5657	 1,1877	-0,1197	 1,4162	 0,8723	 0,5176	 1,0534	-0,1453	 1,3775	 1,9834	-0,0496	 2,4980	 0,3248	 2,5316	 0,1569	 1,3256
12.06.2026 10:29:10	-0,7074	 1,1986	 0,5708	 1,5038	 1,6206	 0,5884	-0,7249	 1,1687	-0,2263	-0,7220	-0,2248	 1,2359	 0,1723	-0,8585	 0,0000	 0,9008	-0,5562	 1,1899	-0,0803	 1,4242	 0,8745	 0,5197	 1,0548	-0,1394	 1,3775	 2,0067	-0,0270	 2,4870	 0,3365	 2,5228	 0,1606	 1,3249
12.06.2026 10:29:10	-0,7044	 1,2023	 0,5752	 1,5081	 1,6242	 0,6125	-0,7358	 1,1665	-0,2234	-0,7139	-0,2241	 1,2366	 0,1876	-0,8570	 0,0000	 0,9023	-0,5643	 1,1913	-0,0985	 1,4140	 0,8701	 0,5190	 1,0526	-0,1431	 1,3746	 1,9746	 0,0015	 2,4659	 0,3621	 2,5148	 0,1840	 1,3147
12.06.2026 10:29:10	-0,7059	 1,2030	 0,5760	 1,5089	 1,6227	 0,5906	-0,7190	 1,1672	-0,2197	-0,7095	-0,2226	 1,2329	 0,1920	-0,8519	 0,0000	 0,9015	-0,5767	 1,1833	-0,1131	 1,4052	 0,8672	 0,5183	 1,0526	-0,1489	 1,3716	 1,9242	 0,0066	 2,4564	 0,3679	 2,5046	 0,1934	 1,3103
12.06.2026 10:29:10	-0,6971	 1,2074	 0,5767	 1,5096	 1,6169	 0,5957	-0,7198	 1,1665	-0,2175	-0,7044	-0,2161	 1,2351	 0,1978	-0,8599	 0,0000	 0,8986	-0,5621	 1,1804	-0,0956	 1,4038	 0,8665	 0,5197	 1,0556	-0,1453	 1,3731	 1,9220	 0,0007	 2,4557	 0,3650	 2,5031	 0,1883	 1,3183
12.06.2026 10:29:10	-0,6964	 1,1935	 0,5723	 1,4986	 1,6147	 0,5891	-0,7168	 1,1650	-0,2205	-0,7139	-0,2234	 1,2315	 0,2117	-0,8585	 0,0000	 0,8957	-0,5599	 1,1789	-0,1037	 1,3957	 0,8614	 0,5176	 1,0490	-0,1511	 1,3680	 1,8870	-0,0073	 2,4615	 0,3613	 2,5002	 0,2022	 1,3278
12.06.2026 10:29:10	-0,7037	 1,1753	 0,5694	 1,4914	 1,6111	 0,5898	-0,7117	 1,1621	-0,2219	-0,7168	-0,2329	 1,2249	 0,1978	-0,8548	 0,0000	 0,8935	-0,5526	 1,1760	-0,0949	 1,3986	 0,8614	 0,5168	 1,0461	-0,1504	 1,3643	 1,8169	 0,0088	 2,4673	 0,3759	 2,4776	 0,2241	 1,3337
12.06.2026 10:29:10	-0,7008	 1,1789	 0,5708	 1,4979	 1,6008	 0,5920	-0,7132	 1,1585	-0,2197	-0,7088	-0,2234	 1,2300	 0,2044	-0,8541	 0,0000	 0,8935	-0,5584	 1,1804	-0,0956	 1,3972	 0,8628	 0,5168	 1,0468	-0,1475	 1,3636	 1,8016	 0,0088	 2,4659	 0,3767	 2,4695	 0,2183	 1,3235
12.06.2026 10:29:10	-0,6993	 1,1855	 0,5679	 1,4965	 1,5935	 0,5774	-0,7190	 1,1541	-0,2212	-0,7125	-0,2190	 1,2213	 0,2015	-0,8504	 0,0000	 0,8898	-0,5650	 1,1804	-0,0905	 1,3979	 0,8599	 0,5146	 1,0424	-0,1489	 1,3592	 1,8111	 0,0015	 2,4630	 0,3650	 2,4688	 0,2051	 1,3001
12.06.2026 10:29:10	-0,7015	 1,1928	 0,5694	 1,4957	 1,6089	 0,5854	-0,7132	 1,1541	-0,2183	-0,7074	-0,2234	 1,2132	 0,1818	-0,8533	 0,0000	 0,8898	-0,5453	 1,1753	-0,0971	 1,3957	 0,8599	 0,5154	 1,0453	-0,1496	 1,3585	 1,8147	-0,0015	 2,4659	 0,3810	 2,4827	 0,2175	 1,2986
12.06.2026 10:29:10	-0,7088	 1,1826	 0,5614	 1,4841	 1,5775	 0,5730	-0,7001	 1,1512	-0,2226	-0,7139	-0,2314	 1,2118	 0,1818	-0,8387	 0,0000	 0,8884	-0,5511	 1,1731	-0,1029	 1,3906	 0,8577	 0,5146	 1,0607	-0,1518	 1,3570	 1,8381	-0,0088	 2,4542	 0,3920	 2,4776	 0,2256	 1,2833
12.06.2026 10:29:10	-0,7015	 1,1789	 0,5562	 1,4782	 1,5870	 0,5708	-0,7081	 1,1475	-0,2248	-0,7139	-0,2263	 1,2118	 0,2029	-0,8344	 0,0000	 0,8869	-0,5519	 1,1731	-0,1051	 1,3826	 0,8541	 0,5117	 1,0431	-0,1548	 1,3527	 1,8636	 0,0080	 2,4469	 0,3964	 2,4688	 0,2226	 1,2643
12.06.2026 10:29:10	-0,7030	 1,1862	 0,5621	 1,4862	 1,6111	 0,5979	-0,7154	 1,1468	-0,2139	-0,6964	-0,2146	 1,2147	 0,2044	-0,8555	 0,0000	 0,8906	-0,5402	 1,1753	-0,1095	 1,3789	 0,8526	 0,5088	 1,0249	-0,1533	 1,3497	 1,8344	 0,0051	 2,4432	 0,4022	 2,4557	 0,2124	 1,2432
12.06.2026 10:29:10	-0,7001	 1,1826	 0,5606	 1,4848	 1,5957	 0,5869	-0,7147	 1,1461	-0,2139	-0,6964	-0,2153	 1,2183	 0,1898	-0,8577	 0,0000	 0,8906	-0,5387	 1,1767	-0,1037	 1,3804	 0,8512	 0,5110	 1,0373	-0,1511	 1,3527	 1,7943	-0,0153	 2,4432	 0,4037	 2,4425	 0,2000	 1,2351
12.06.2026 10:29:10	-0,6986	 1,1789	 0,5570	 1,4782	 1,5892	 0,5789	-0,7154	 1,1446	-0,2197	-0,7015	-0,2307	 1,2125	 0,1752	-0,8482	 0,0000	 0,8862	-0,5438	 1,1731	-0,1000	 1,3797	 0,8490	 0,5088	 1,0351	-0,1526	 1,3490	 1,8045	-0,0161	 2,4571	 0,4029	 2,4440	 0,2110	 1,2607
12.06.2026 10:29:10	-0,6964	 1,1738	 0,5592	 1,4768	 1,5855	 0,5796	-0,7095	 1,1431	-0,2212	-0,7030	-0,2285	 1,2103	 0,1781	-0,8446	 0,0000	 0,8811	-0,5497	 1,1723	-0,0956	 1,3804	 0,8490	 0,5073	 1,0337	-0,1518	 1,3454	 1,7680	-0,0058	 2,4513	 0,3971	 2,4403	 0,2110	 1,2709
12.06.2026 10:29:10	-0,6898	 1,1723	 0,5584	 1,4775	 1,6023	 0,5708	-0,7088	 1,1439	-0,2190	-0,7044	-0,2234	 1,2256	 0,1905	-0,8490	 0,0000	 0,8825	-0,5438	 1,1723	-0,0942	 1,3782	 0,8482	 0,5095	 1,0366	-0,1504	 1,3475	 1,7001	-0,0182	 2,4367	 0,4095	 2,4396	 0,1986	 1,2753
12.06.2026 10:29:10	-0,6928	 1,1709	 0,5592	 1,4789	 1,5957	 0,5927	-0,7015	 1,1439	-0,2175	-0,7015	-0,2285	 1,2067	 0,1920	-0,8439	 0,0000	 0,8811	-0,5446	 1,1643	-0,0891	 1,3775	 0,8475	 0,5051	 1,0293	-0,1533	 1,3424	 1,7060	-0,0299	 2,4192	 0,4446	 2,4462	 0,2102	 1,2665
12.06.2026 10:29:10	-0,6760	 1,1767	 0,5533	 1,4782	 1,5906	 0,5738	-0,7110	 1,1395	-0,2212	-0,6971	-0,2117	 1,2037	 0,2037	-0,8395	 0,0000	 0,8825	-0,5416	 1,1687	-0,0898	 1,3797	 0,8512	 0,5081	 1,0315	-0,1489	 1,3454	 1,7235	-0,0285	 2,4002	 0,4497	 2,4352	 0,2139	 1,2373
12.06.2026 10:29:10	-0,6833	 1,1672	 0,5497	 1,4709	 1,5877	 0,5635	-0,7132	 1,1366	-0,2197	-0,7037	-0,2161	 1,2140	 0,1847	-0,8395	 0,0000	 0,8825	-0,5453	 1,1658	-0,0956	 1,3760	 0,8504	 0,5088	 1,0307	-0,1460	 1,3468	 1,7271	-0,0358	 2,4067	 0,4270	 2,4286	 0,1840	 1,2388
12.06.2026 10:29:10	-0,6920	 1,1592	 0,5526	 1,4716	 1,5680	 0,5833	-0,7022	 1,1366	-0,2175	-0,7030	-0,2256	 1,2045	 0,1694	-0,8351	 0,0000	 0,8789	-0,5533	 1,1570	-0,0891	 1,3760	 0,8497	 0,5059	 1,0264	-0,1475	 1,3417	 1,7534	-0,0460	 2,4221	 0,3986	 2,4352	 0,1701	 1,2636
12.06.2026 10:29:10	-0,6891	 1,1672	 0,5475	 1,4680	 1,5826	 0,5745	-0,7022	 1,1329	-0,2139	-0,6964	-0,2205	 1,1935	 0,1898	-0,8358	 0,0000	 0,8760	-0,5431	 1,1534	-0,1073	 1,3680	 0,8460	 0,5022	 1,0227	-0,1540	 1,3351	 1,7863	-0,0401	 2,4177	 0,3920	 2,4206	 0,1905	 1,2702
12.06.2026 10:29:10	-0,7001	 1,1614	 0,5431	 1,4614	 1,5724	 0,5679	-0,7015	 1,1300	-0,2161	-0,6986	-0,2197	 1,1877	 0,1810	-0,8344	 0,0000	 0,8723	-0,5431	 1,1490	-0,1168	 1,3614	 0,8431	 0,4993	 1,0169	-0,1584	 1,3308	 1,7680	-0,0263	 2,4133	 0,3971	 2,4206	 0,1905	 1,2621
12.06.2026 10:29:10	-0,6928	 1,1519	 0,5446	 1,4578	 1,5585	 0,5614	-0,7044	 1,1285	-0,2205	-0,7052	-0,2285	 1,1935	 0,1891	-0,8395	 0,0000	 0,8709	-0,5460	 1,1526	-0,1066	 1,3621	 0,8424	 0,4986	 1,0147	-0,1577	 1,3300	 1,7337	-0,0270	 2,4016	 0,3993	 2,4111	 0,1905	 1,2475
12.06.2026 10:29:10	-0,6833	 1,1548	 0,5438	 1,4549	 1,5570	 0,5650	-0,7059	 1,1278	-0,2197	-0,7037	-0,2270	 1,1869	 0,1847	-0,8409	 0,0000	 0,8694	-0,5489	 1,1388	-0,1080	 1,3578	 0,8387	 0,4949	 1,0088	-0,1606	 1,3242	 1,7432	-0,0161	 2,3783	 0,4095	 2,3885	 0,1993	 1,2366
12.06.2026 10:29:10	-0,6928	 1,1636	 0,5402	 1,4541	 1,5476	 0,5643	-0,7066	 1,1264	-0,2219	-0,7015	-0,2292	 1,1826	 0,1942	-0,8358	 0,0000	 0,8658	-0,5497	 1,1322	-0,1110	 1,3541	 0,8358	 0,4927	 1,0045	-0,1635	 1,3191	 1,7103	-0,0423	 2,3688	 0,3745	 2,3783	 0,1628	 1,2271
12.06.2026 10:29:10	-0,6964	 1,1534	 0,5409	 1,4512	 1,5702	 0,5672	-0,7037	 1,1249	-0,2205	-0,7008	-0,2263	 1,1833	 0,1818	-0,8351	 0,0000	 0,8650	-0,5460	 1,1431	-0,1073	 1,3512	 0,8336	 0,4927	 1,0066	-0,1613	 1,3220	 1,6753	-0,0555	 2,3797	 0,3672	 2,3819	 0,1548	 1,2359
12.06.2026 10:29:10	-0,6949	 1,1461	 0,5416	 1,4505	 1,5614	 0,5635	-0,6993	 1,1256	-0,2161	-0,6964	-0,2183	 1,1833	 0,1591	-0,8322	 0,0000	 0,8658	-0,5468	 1,1358	-0,1007	 1,3534	 0,8351	 0,4935	 1,0059	-0,1555	 1,3249	 1,6906	-0,0518	 2,3797	 0,3519	 2,3848	 0,1628	 1,2468
12.06.2026 10:29:10	-0,6949	 1,1461	 0,5402	 1,4461	 1,5388	 0,5584	-0,6993	 1,1249	-0,2226	-0,6986	-0,2292	 1,1738	 0,1942	-0,8307	 0,0000	 0,8621	-0,5482	 1,1344	-0,1015	 1,3534	 0,8358	 0,4935	 1,0030	-0,1540	 1,3220	 1,6943	-0,0613	 2,3469	 0,3402	 2,3629	 0,1657	 1,2205
12.06.2026 10:29:10	-0,6782	 1,1461	 0,5373	 1,4424	 1,5497	 0,5548	-0,6957	 1,1234	-0,2197	-0,6986	-0,2248	 1,1738	 0,1920	-0,8329	 0,0000	 0,8614	-0,5526	 1,1380	-0,1124	 1,3468	 0,8336	 0,4935	 1,0045	-0,1548	 1,3205	 1,7111	-0,0431	 2,3425	 0,3832	 2,3505	 0,1796	 1,1994
12.06.2026 10:29:10	-0,6745	 1,1439	 0,5358	 1,4410	 1,5570	 0,5606	-0,6949	 1,1212	-0,2175	-0,6949	-0,2329	 1,1789	 0,1898	-0,8256	 0,0000	 0,8599	-0,5570	 1,1278	-0,1153	 1,3468	 0,8336	 0,4913	 1,0001	-0,1562	 1,3176	 1,7403	-0,0314	 2,3549	 0,3949	 2,3462	 0,1920	 1,2008
12.06.2026 10:29:10	-0,6716	 1,1512	 0,5395	 1,4417	 1,5651	 0,5708	-0,7022	 1,1183	-0,2153	-0,6920	-0,2212	 1,1760	 0,1759	-0,8307	 0,0000	 0,8606	-0,5475	 1,1344	-0,1095	 1,3468	 0,8373	 0,4957	 1,0037	-0,1511	 1,3227	 1,7731	-0,0197	 2,3352	 0,3935	 2,3330	 0,2066	 1,1957
12.06.2026 10:29:10	-0,6723	 1,1512	 0,5365	 1,4373	 1,5570	 0,5606	-0,6986	 1,1161	-0,2190	-0,6935	-0,2161	 1,1818	 0,1701	-0,8271	 0,0000	 0,8592	-0,5380	 1,1329	-0,1051	 1,3483	 0,8366	 0,4978	 1,0066	-0,1504	 1,3227	 1,7512	-0,0204	 2,3381	 0,3796	 2,3352	 0,1927	 1,1782
12.06.2026 10:29:10	-0,6730	 1,1497	 0,5409	 1,4351	 1,5563	 0,5869	-0,6789	 1,1176	-0,2234	-0,6949	-0,2314	 1,1760	 0,1679	-0,8183	 0,0000	 0,8570	-0,5482	 1,1351	-0,0978	 1,3483	 0,8336	 0,4942	 1,0037	-0,1533	 1,3169	 1,7103	-0,0219	 2,3535	 0,3745	 2,3330	 0,1978	 1,1621
12.06.2026 10:29:10	-0,6701	 1,1344	 0,5329	 1,4351	 1,5570	 0,5548	-0,6825	 1,1169	-0,2175	-0,6935	-0,2212	 1,1680	 0,1540	-0,8110	 0,0000	 0,8555	-0,5643	 1,1300	-0,0934	 1,3483	 0,8329	 0,4905	 1,0001	-0,1548	 1,3132	 1,7249	-0,0102	 2,3498	 0,3854	 2,3243	 0,2066	 1,1855
12.06.2026 10:29:10	-0,6855	 1,1169	 0,5263	 1,4286	 1,5308	 0,5358	-0,6898	 1,1125	-0,2197	-0,6928	-0,2270	 1,1694	 0,1358	-0,8074	 0,0000	 0,8526	-0,5548	 1,1198	-0,0898	 1,3607	 0,8322	 0,4898	 0,9972	-0,1540	 1,3103	 1,6972	 0,0000	 2,3308	 0,3869	 2,3162	 0,1883	 1,1877
12.06.2026 10:29:10	-0,6913	 1,1322	 0,5292	 1,4264	 1,5417	 0,5614	-0,6891	 1,1088	-0,2183	-0,6876	-0,2175	 1,1753	 0,1672	-0,8161	 0,0000	 0,8526	-0,5387	 1,1264	-0,1066	 1,3454	 0,8285	 0,4891	 0,9957	-0,1569	 1,3096	 1,6417	 0,0080	 2,3140	 0,3964	 2,3002	 0,2022	 1,1760
12.06.2026 10:29:10	-0,6906	 1,1242	 0,5285	 1,4257	 1,5490	 0,5329	-0,6957	 1,1059	-0,2168	-0,6913	-0,2241	 1,1745	 0,2197	-0,8161	 0,0000	 0,8533	-0,5307	 1,1242	-0,1241	 1,3220	 0,8227	 0,4891	 0,9979	-0,1599	 1,3081	 1,6439	 0,0204	 2,3140	 0,4241	 2,2907	 0,2102	 1,1840
12.06.2026 10:29:10	-0,6738	 1,1132	 0,5358	 1,4315	 1,5497	 0,5460	-0,6855	 1,1074	-0,2161	-0,6898	-0,2314	 1,1789	 0,2007	-0,8358	 0,0000	 0,8504	-0,5300	 1,1307	-0,1044	 1,3264	 0,8220	 0,4884	 1,0015	-0,1548	 1,3089	 1,6687	 0,0263	 2,3155	 0,4110	 2,3009	 0,1905	 1,1745
12.06.2026 10:29:10	-0,6621	 1,1067	 0,5322	 1,4264	 1,5607	 0,5803	-0,6942	 1,1045	-0,2183	-0,6906	-0,2248	 1,1789	 0,2007	-0,8336	 0,0000	 0,8475	-0,5373	 1,1329	-0,1102	 1,3264	 0,8220	 0,4869	 0,9993	-0,1555	 1,3059	 1,6746	 0,0095	 2,2987	 0,3818	 2,3097	 0,1788	 1,1680
12.06.2026 10:29:10	-0,6592	 1,1110	 0,5322	 1,4242	 1,5505	 0,5760	-0,6928	 1,1037	-0,2183	-0,6920	-0,2256	 1,1592	 0,1752	-0,8212	 0,0000	 0,8468	-0,5314	 1,1315	-0,0912	 1,3286	 0,8220	 0,4847	 0,9950	-0,1562	 1,3008	 1,6994	 0,0095	 2,3002	 0,3862	 2,3155	 0,1759	 1,1760
12.06.2026 10:29:10	-0,6716	 1,1161	 0,5270	 1,4227	 1,5147	 0,5562	-0,6811	 1,1030	-0,2168	-0,6898	-0,2161	 1,1541	 0,1635	-0,8132	 0,0000	 0,8431	-0,5329	 1,1169	-0,0584	 1,3315	 0,8190	 0,4789	 0,9869	-0,1555	 1,2928	 1,7388	 0,0204	 2,3002	 0,4073	 2,3067	 0,1913	 1,1738
12.06.2026 10:29:10	-0,6730	 1,1234	 0,5270	 1,4162	 1,5220	 0,5635	-0,6818	 1,1030	-0,2153	-0,6891	-0,2205	 1,1702	 0,1876	-0,8161	 0,0000	 0,8453	-0,5270	 1,1183	-0,1314	 1,3198	 0,8147	 0,4825	 0,9884	-0,1613	 1,2935	 1,7162	-0,0504	 2,3535	 0,3475	 2,3447	 0,1183	 1,2161
12.06.2026 10:29:10	-0,6752	 1,1410	 0,5322	 1,4169	 1,5519	 0,5621	-0,6818	 1,1008	-0,2132	-0,6825	-0,2139	 1,1753	 0,1913	-0,8241	 0,0000	 0,8453	-0,5351	 1,1307	-0,1299	 1,3191	 0,8139	 0,4840	 0,9899	-0,1577	 1,2943	 1,6921	-0,1292	 2,4381	 0,2701	 2,3994	 0,0365	 1,2614
12.06.2026 10:29:10	-0,6935	 1,1307	 0,5212	 1,4140	 1,5227	 0,5511	-0,6884	 1,0972	-0,2146	-0,6789	-0,2102	 1,1570	 0,1934	-0,8081	 0,0000	 0,8395	-0,5679	 1,1220	-0,0905	 1,3271	 0,8117	 0,4789	 0,9818	-0,1555	 1,2877	 1,7118	-0,0934	 2,4009	 0,3190	 2,3608	 0,0730	 1,2286
12.06.2026 10:29:10	-0,6760	 1,1322	 0,5219	 1,4140	 1,5213	 0,5489	-0,6855	 1,0972	-0,2153	-0,6825	-0,2146	 1,1570	 0,1686	-0,8132	 0,0000	 0,8417	-0,5643	 1,1220	-0,1022	 1,3227	 0,8088	 0,4796	 0,9818	-0,1569	 1,2855	 1,6833	-0,0657	 2,3462	 0,3540	 2,3228	 0,0993	 1,2110
12.06.2026 10:29:10	-0,6555	 1,1388	 0,5227	 1,4111	 1,5322	 0,5519	-0,6811	 1,0964	-0,2168	-0,6869	-0,2102	 1,1607	 0,1861	-0,8190	 0,0000	 0,8424	-0,5365	 1,1227	-0,1022	 1,3140	 0,8081	 0,4811	 0,9869	-0,1555	 1,2848	 1,6293	-0,0591	 2,3184	 0,3665	 2,3060	 0,1146	 1,1869
12.06.2026 10:29:10	-0,6584	 1,1380	 0,5176	 1,4089	 1,5286	 0,5519	-0,6811	 1,0935	-0,2175	-0,6855	-0,2088	 1,1599	 0,1920	-0,8125	 0,0000	 0,8380	-0,5219	 1,1169	-0,1073	 1,3176	 0,8095	 0,4803	 0,9826	-0,1540	 1,2833	 1,6242	-0,0460	 2,2958	 0,3810	 2,2972	 0,1299	 1,1709
12.06.2026 10:29:10	-0,6606	 1,1417	 0,5176	 1,4111	 1,5257	 0,5489	-0,6833	 1,0913	-0,2124	-0,6811	-0,2110	 1,1614	 0,1796	-0,8139	 0,0000	 0,8402	-0,5190	 1,1212	-0,1007	 1,3154	 0,8088	 0,4803	 0,9796	-0,1511	 1,2811	 1,6403	-0,0358	 2,2761	 0,4124	 2,2695	 0,1416	 1,1446
12.06.2026 10:29:10	-0,6628	 1,1278	 0,5197	 1,4067	 1,5184	 0,5533	-0,6774	 1,0928	-0,2124	-0,6789	-0,2190	 1,1563	 0,1803	-0,8117	 0,0000	 0,8395	-0,5190	 1,1198	-0,1029	 1,3118	 0,8074	 0,4803	 0,9811	-0,1518	 1,2826	 1,6541	-0,0088	 2,2732	 0,4416	 2,2513	 0,1730	 1,1329
12.06.2026 10:29:10	-0,6533	 1,1242	 0,5176	 1,4045	 1,5264	 0,5533	-0,6738	 1,0928	-0,2117	-0,6760	-0,2183	 1,1585	 0,1591	-0,8074	 0,0000	 0,8380	-0,5227	 1,1125	-0,1015	 1,3132	 0,8074	 0,4796	 0,9796	-0,1496	 1,2818	 1,6906	 0,0117	 2,2783	 0,4358	 2,2447	 0,1934	 1,1468
12.06.2026 10:29:10	-0,6511	 1,1329	 0,5161	 1,4023	 1,5125	 0,5482	-0,6709	 1,0899	-0,2124	-0,6745	-0,2044	 1,1512	 0,1752	-0,8052	 0,0000	 0,8373	-0,5132	 1,1154	-0,0985	 1,3118	 0,8081	 0,4796	 0,9804	-0,1518	 1,2789	 1,7315	 0,0175	 2,2600	 0,4424	 2,2199	 0,2073	 1,1475
12.06.2026 10:29:10	-0,6599	 1,1088	 0,5183	 1,3994	 1,5213	 0,5548	-0,6723	 1,0884	-0,2153	-0,6752	-0,2153	 1,1439	 0,1752	-0,8074	 0,0000	 0,8358	-0,5424	 1,1037	-0,1015	 1,3089	 0,8066	 0,4789	 0,9760	-0,1533	 1,2760	 1,7030	-0,0015	 2,2571	 0,4329	 2,2170	 0,2132	 1,1504
12.06.2026 10:29:10	-0,6438	 1,1001	 0,5183	 1,3935	 1,5293	 0,5614	-0,6672	 1,0899	-0,2080	-0,6782	-0,2219	 1,1504	 0,1818	-0,8037	 0,0000	 0,8344	-0,5643	 1,1037	-0,1007	 1,3067	 0,8052	 0,4781	 0,9767	-0,1518	 1,2724	 1,6600	 0,0036	 2,2294	 0,4438	 2,1951	 0,2358	 1,1096
12.06.2026 10:29:10	-0,6395	 1,0994	 0,5139	 1,3899	 1,5191	 0,5409	-0,6628	 1,0899	-0,2110	-0,6811	-0,2256	 1,1599	 0,1891	-0,7993	 0,0000	 0,8300	-0,5285	 1,1081	-0,0927	 1,3096	 0,8052	 0,4767	 0,9731	-0,1504	 1,2709	 1,6738	 0,0051	 2,1951	 0,4438	 2,1666	 0,2409	 1,0891
12.06.2026 10:29:10	-0,6431	 1,1052	 0,5154	 1,3935	 1,5125	 0,5460	-0,6760	 1,0869	-0,2190	-0,6818	-0,2139	 1,1607	 0,2007	-0,8008	 0,0000	 0,8300	-0,5212	 1,1037	-0,0949	 1,3067	 0,8015	 0,4752	 0,9672	-0,1518	 1,2694	 1,6541	-0,0263	 2,2111	 0,4300	 2,1702	 0,2205	 1,0935
12.06.2026 10:29:10	-0,6563	 1,1052	 0,5176	 1,3892	 1,5023	 0,5577	-0,6650	 1,0891	-0,2183	-0,6789	-0,2029	 1,1504	 0,1861	-0,7964	 0,0000	 0,8314	-0,5227	 1,1001	-0,0956	 1,3067	 0,8001	 0,4745	 0,9687	-0,1504	 1,2672	 1,6030	-0,0248	 2,2162	 0,4394	 2,1746	 0,2278	 1,0921
12.06.2026 10:29:10	-0,6628	 1,0884	 0,5146	 1,3848	 1,5081	 0,5395	-0,6636	 1,0884	-0,2146	-0,6738	-0,2234	 1,1358	 0,1511	-0,7825	 0,0000	 0,8293	-0,5168	 1,0994	-0,0942	 1,3089	 0,8008	 0,4738	 0,9650	-0,1533	 1,2643	 1,5965	-0,0219	 2,1965	 0,4263	 2,1659	 0,2351	 1,0818
12.06.2026 10:29:10	-0,6621	 1,0979	 0,5124	 1,3884	 1,4986	 0,5395	-0,6738	 1,0862	-0,2059	-0,6760	-0,2124	 1,1322	 0,1891	-0,7818	 0,0000	 0,8278	-0,5154	 1,1008	-0,0810	 1,3067	 0,7993	 0,4730	 0,9650	-0,1518	 1,2651	 1,6169	-0,0204	 2,1965	 0,3993	 2,1637	 0,2358	 1,0585
12.06.2026 10:29:10	-0,6563	 1,1015	 0,5103	 1,3913	 1,5089	 0,5511	-0,6679	 1,0862	-0,2007	-0,6643	-0,2073	 1,1410	 0,1964	-0,8044	 0,0000	 0,8322	-0,5073	 1,1015	-0,0861	 1,3001	 0,8001	 0,4774	 0,9723	-0,1460	 1,2702	 1,6410	-0,0190	 2,1994	 0,3876	 2,1586	 0,2329	 1,0599
12.06.2026 10:29:10	-0,6614	 1,1008	 0,5044	 1,3877	 1,5132	 0,5438	-0,6665	 1,0826	-0,2015	-0,6592	-0,1993	 1,1439	 0,1657	-0,8015	 0,0000	 0,8307	-0,5073	 1,1015	-0,0920	 1,3008	 0,8001	 0,4774	 0,9716	-0,1423	 1,2709	 1,6731	-0,0197	 2,2002	 0,4015	 2,1600	 0,2270	 1,0760
12.06.2026 10:29:10	-0,6621	 1,0950	 0,4993	 1,3819	 1,4979	 0,5314	-0,6657	 1,0804	-0,2037	-0,6687	-0,2080	 1,1410	 0,1555	-0,7928	 0,0000	 0,8278	-0,5044	 1,0986	-0,0796	 1,3045	 0,8008	 0,4774	 0,9716	-0,1394	 1,2709	 1,7111	-0,0190	 2,1907	 0,4029	 2,1724	 0,2270	 1,0913
12.06.2026 10:29:10	-0,6417	 1,1008	 0,5015	 1,3782	 1,4994	 0,5365	-0,6694	 1,0789	-0,2037	-0,6687	-0,2088	 1,1534	 0,1861	-0,7928	 0,0000	 0,8271	-0,5117	 1,1008	-0,0912	 1,3001	 0,8001	 0,4774	 0,9687	-0,1380	 1,2709	 1,6914	-0,0117	 2,1746	 0,4117	 2,1600	 0,2285	 1,0818
12.06.2026 10:29:10	-0,6577	 1,1045	 0,5008	 1,3760	 1,4862	 0,5395	-0,6657	 1,0775	-0,2022	-0,6657	-0,2015	 1,1592	 0,1781	-0,7884	 0,0000	 0,8271	-0,5322	 1,0957	-0,0905	 1,2994	 0,7986	 0,4796	 0,9833	-0,1343	 1,2724	 1,6556	 0,0022	 2,1651	 0,4263	 2,1432	 0,2402	 1,0453
12.06.2026 10:29:10	-0,6650	 1,0921	 0,4993	 1,3753	 1,4789	 0,5438	-0,6636	 1,0789	-0,2015	-0,6628	-0,2139	 1,1329	 0,1672	-0,7833	 0,0000	 0,8256	-0,5197	 1,0899	-0,0912	 1,2935	 0,7949	 0,4781	 0,9782	-0,1467	 1,2665	 1,6717	-0,0109	 2,1695	 0,4139	 2,1542	 0,2402	 1,0417
12.06.2026 10:29:10	-0,6292	 1,0972	 0,5088	 1,3826	 1,5023	 0,5351	-0,6628	 1,0796	-0,1927	-0,6548	-0,2066	 1,1351	 0,1956	-0,7898	 0,0000	 0,8271	-0,5059	 1,0986	-0,0883	 1,2906	 0,7928	 0,4716	 0,9461	-0,1460	 1,2636	 1,6403	-0,0102	 2,1783	 0,4161	 2,1476	 0,2431	 1,0563
12.06.2026 10:29:10	-0,6307	 1,0994	 0,5132	 1,3833	 1,4965	 0,5475	-0,6511	 1,0811	-0,1920	-0,6614	-0,2110	 1,1380	 0,1504	-0,7949	 0,0000	 0,8263	-0,5139	 1,0899	-0,0964	 1,2884	 0,7913	 0,4738	 0,9519	-0,1453	 1,2636	 1,5789	 0,0015	 2,1783	 0,4124	 2,1461	 0,2460	 1,0548
12.06.2026 10:29:10	-0,6592	 1,0877	 0,4978	 1,3738	 1,4789	 0,5256	-0,6497	 1,0782	-0,1986	-0,6584	-0,2132	 1,1205	 0,1453	-0,7650	 0,0000	 0,8212	-0,5146	 1,0862	-0,1058	 1,2811	 0,7884	 0,4738	 0,9555	-0,1504	 1,2585	 1,5709	 0,0022	 2,1790	 0,4124	 2,1527	 0,2394	 1,0607
12.06.2026 10:29:10	-0,6314	 1,0950	 0,5000	 1,3782	 1,5067	 0,5219	-0,6614	 1,0782	-0,1986	-0,6511	-0,2015	 1,1402	 0,2015	-0,7847	 0,0000	 0,8241	-0,5234	 1,1008	-0,0978	 1,2789	 0,7928	 0,4774	 0,9607	-0,1402	 1,2643	 1,5855	 0,0139	 2,1717	 0,4227	 2,1367	 0,2336	 1,0461
12.06.2026 10:29:10	-0,6219	 1,0994	 0,5088	 1,3797	 1,5118	 0,5592	-0,6730	 1,0775	-0,1956	-0,6548	-0,1905	 1,1461	 0,1971	-0,8154	 0,0000	 0,8256	-0,5124	 1,1037	-0,0854	 1,2891	 0,7971	 0,4789	 0,9650	-0,1321	 1,2694	 1,6067	 0,0182	 2,1761	 0,4278	 2,1199	 0,2168	 1,0249
12.06.2026 10:29:10	-0,6278	 1,0848	 0,5015	 1,3738	 1,4965	 0,5358	-0,6599	 1,0738	-0,1956	-0,6563	-0,1949	 1,1395	 0,1825	-0,7884	 0,0000	 0,8220	-0,4949	 1,0986	-0,0752	 1,2899	 0,7957	 0,4745	 0,9599	-0,1307	 1,2651	 1,6439	 0,0131	 2,1768	 0,4343	 2,1126	 0,2190	 1,0366
12.06.2026 10:29:10	-0,6117	 1,0760	 0,5066	 1,3694	 1,5111	 0,5460	-0,6417	 1,0760	-0,1964	-0,6584	-0,2015	 1,1453	 0,2102	-0,7818	 0,0000	 0,8190	-0,4898	 1,0986	-0,0861	 1,2818	 0,7942	 0,4752	 0,9592	-0,1292	 1,2651	 1,6731	 0,0307	 2,1695	 0,4373	 2,1162	 0,2278	 1,0315
12.06.2026 10:29:10	-0,6249	 1,0811	 0,5059	 1,3687	 1,4979	 0,5482	-0,6453	 1,0723	-0,1934	-0,6504	-0,2044	 1,1410	 0,1934	-0,7840	 0,0000	 0,8190	-0,4891	 1,0994	-0,0737	 1,2877	 0,7957	 0,4767	 0,9599	-0,1256	 1,2643	 1,6395	 0,0920	 2,0885	 0,4986	 2,0476	 0,2840	 0,9431
12.06.2026 10:29:10	-0,6314	 1,0950	 0,5015	 1,3651	 1,4848	 0,5446	-0,6468	 1,0672	-0,1971	-0,6511	-0,2051	 1,1351	 0,1701	-0,7730	 0,0000	 0,8176	-0,5059	 1,0972	-0,0774	 1,2877	 0,7957	 0,4767	 0,9592	-0,1277	 1,2607	 1,6060	 0,1248	 2,0447	 0,5270	 2,0053	 0,3212	 0,9190
12.06.2026 10:29:10	-0,6168	 1,1001	 0,4971	 1,3578	 1,4768	 0,5351	-0,6468	 1,0658	-0,2022	-0,6563	-0,1956	 1,1256	 0,1358	-0,7672	 0,0000	 0,8117	-0,5008	 1,0855	-0,0387	 1,2950	 0,7935	 0,4716	 0,9519	-0,1241	 1,2585	 1,6227	 0,0847	 2,0936	 0,4884	 2,0388	 0,2927	 0,9833
12.06.2026 10:29:10	-0,6300	 1,0928	 0,4869	 1,3578	 1,4468	 0,4876	-0,6584	 1,0599	-0,2015	-0,6519	-0,1986	 1,1198	 0,1387	-0,7490	 0,0000	 0,8088	-0,4949	 1,0753	-0,0409	 1,2906	 0,7898	 0,4679	 0,9446	-0,1285	 1,2526	 1,6052	 0,0504	 2,1009	 0,4694	 2,0534	 0,2723	 1,0059
12.06.2026 10:29:10	-0,6300	 1,0833	 0,5051	 1,3592	 1,4892	 0,5446	-0,6373	 1,0658	-0,2015	-0,6453	-0,2015	 1,1322	 0,2132	-0,7825	 0,0000	 0,8168	-0,4927	 1,0804	-0,1183	 1,2738	 0,7869	 0,4738	 0,9526	-0,1343	 1,2534	 1,5527	 0,0299	 2,1315	 0,4402	 2,0870	 0,2416	 1,0285
12.06.2026 10:29:10	-0,6183	 1,0767	 0,5000	 1,3570	 1,4965	 0,5511	-0,6438	 1,0658	-0,2110	-0,6424	-0,2029	 1,1431	 0,1949	-0,7979	 0,0000	 0,8154	-0,4957	 1,0738	-0,0934	 1,2738	 0,7898	 0,4789	 0,9599	-0,1241	 1,2599	 1,5424	 0,0182	 2,1315	 0,4416	 2,0899	 0,2321	 1,0278
12.06.2026 10:29:10	-0,6146	 1,0745	 0,4891	 1,3541	 1,4819	 0,5132	-0,6672	 1,0585	-0,2190	-0,6519	-0,2029	 1,1278	 0,2000	-0,7672	 0,0000	 0,8088	-0,4986	 1,0775	-0,0876	 1,2738	 0,7906	 0,4759	 0,9555	-0,1256	 1,2592	 1,5622	 0,0241	 2,0950	 0,4453	 2,0651	 0,2263	 0,9855
12.06.2026 10:29:10	-0,6154	 1,0716	 0,5015	 1,3578	 1,4862	 0,5453	-0,6511	 1,0585	-0,1971	-0,6563	-0,1934	 1,1351	 0,2234	-0,7760	 0,0000	 0,8088	-0,5343	 1,0855	-0,0839	 1,2767	 0,7884	 0,4716	 0,9534	-0,1212	 1,2578	 1,5746	 0,0365	 2,0856	 0,4394	 2,0556	 0,2146	 0,9745
12.06.2026 10:29:10	-0,6263	 1,0680	 0,4891	 1,3556	 1,4665	 0,5343	-0,6475	 1,0563	-0,1883	-0,6519	-0,1927	 1,1293	 0,1927	-0,7767	 0,0000	 0,8074	-0,5497	 1,0862	-0,0810	 1,2702	 0,7869	 0,4730	 0,9534	-0,1226	 1,2578	 1,6038	 0,0489	 2,0987	 0,4475	 2,0761	 0,2088	 0,9957
12.06.2026 10:29:10	-0,6205	 1,0614	 0,4920	 1,3461	 1,4811	 0,5373	-0,6365	 1,0577	-0,1898	-0,6475	-0,1986	 1,1088	 0,1650	-0,7774	 0,0000	 0,8088	-0,5139	 1,0782	-0,0869	 1,2665	 0,7840	 0,4738	 0,9497	-0,1270	 1,2526	 1,6257	 0,0321	 2,1155	 0,4387	 2,1016	 0,1993	 1,0227
12.06.2026 10:29:10	-0,6154	 1,0614	 0,4898	 1,3381	 1,4833	 0,5358	-0,6497	 1,0534	-0,1840	-0,6475	-0,2007	 1,1183	 0,1723	-0,7760	 0,0000	 0,8088	-0,5051	 1,0745	-0,0869	 1,2672	 0,7833	 0,4730	 0,9490	-0,1241	 1,2505	 1,5972	 0,0051	 2,1286	 0,4110	 2,1104	 0,1788	 1,0293
12.06.2026 10:29:10	-0,6139	 1,0687	 0,4818	 1,3351	 1,4746	 0,5292	-0,6490	 1,0512	-0,1898	-0,6490	-0,2066	 1,1191	 0,1913	-0,7701	 0,0000	 0,8037	-0,4803	 1,0796	-0,0971	 1,2636	 0,7825	 0,4723	 0,9490	-0,1277	 1,2497	 1,5972	 0,0000	 2,1388	 0,3862	 2,1023	 0,1599	 1,0103
12.06.2026 10:29:10	-0,6168	 1,0643	 0,4862	 1,3242	 1,4658	 0,5351	-0,6351	 1,0504	-0,1942	-0,6563	-0,2088	 1,1191	 0,1891	-0,7716	 0,0000	 0,7986	-0,4752	 1,0716	-0,0869	 1,2636	 0,7803	 0,4686	 0,9461	-0,1285	 1,2461	 1,6169	-0,0036	 2,1323	 0,3942	 2,1031	 0,1679	 1,0147
12.06.2026 10:29:10	-0,6351	 1,0534	 0,4774	 1,3176	 1,4614	 0,5124	-0,6453	 1,0431	-0,1942	-0,6672	-0,2124	 1,1081	 0,1803	-0,7687	 0,0000	 0,7971	-0,4898	 1,0672	-0,0934	 1,2607	 0,7796	 0,4679	 0,9417	-0,1321	 1,2439	 1,5768	-0,0139	 2,1505	 0,3993	 2,1155	 0,1613	 1,0285
12.06.2026 10:29:10	-0,6263	 1,0541	 0,4745	 1,3286	 1,4651	 0,5117	-0,6606	 1,0380	-0,2117	-0,6636	-0,2183	 1,1140	 0,1876	-0,7716	 0,0000	 0,7993	-0,4862	 1,0680	-0,0861	 1,2629	 0,7796	 0,4694	 0,9446	-0,1292	 1,2453	 1,5242	 0,0124	 2,1549	 0,4241	 2,1067	 0,1883	 1,0497
12.06.2026 10:29:10	-0,6066	 1,0650	 0,4774	 1,3337	 1,4651	 0,5234	-0,6387	 1,0417	-0,2226	-0,6570	-0,2059	 1,1161	 0,1796	-0,7679	 0,0000	 0,7986	-0,4854	 1,0738	-0,0810	 1,2651	 0,7818	 0,4701	 0,9446	-0,1248	 1,2468	 1,5213	 0,0219	 2,1556	 0,4219	 2,1045	 0,1986	 1,0680
12.06.2026 10:29:10	-0,6249	 1,0614	 0,4679	 1,3256	 1,4570	 0,5095	-0,6497	 1,0424	-0,1934	-0,6453	-0,1927	 1,1030	 0,1285	-0,7577	 0,0000	 0,7986	-0,4825	 1,0687	-0,0854	 1,2643	 0,7796	 0,4672	 0,9380	-0,1292	 1,2402	 1,5446	 0,0131	 2,1578	 0,4008	 2,0958	 0,1715	 1,0526
12.06.2026 10:29:10	-0,6300	 1,0592	 0,4738	 1,3242	 1,4512	 0,5168	-0,6869	 1,0431	-0,1861	-0,6409	-0,1883	 1,1096	 0,1657	-0,7592	 0,0000	 0,7979	-0,4825	 1,0658	-0,0861	 1,2570	 0,7760	 0,4657	 0,9380	-0,1299	 1,2380	 1,5600	 0,0285	 2,1381	 0,4190	 2,0797	 0,1905	 1,0227
12.06.2026 10:29:10	-0,6103	 1,0731	 0,4986	 1,3497	 1,4592	 0,5183	-0,6453	 1,0475	-0,1861	-0,6249	-0,1891	 1,1118	 0,1971	-0,7657	 0,0000	 0,7957	-0,4759	 1,0731	-0,0869	 1,2534	 0,7767	 0,4665	 0,9402	-0,1263	 1,2402	 1,5855	 0,0321	 2,1148	 0,4321	 2,0585	 0,2044	 1,0227
12.06.2026 10:29:10	-0,6154	 1,0767	 0,5197	 1,3716	 1,4381	 0,5431	-0,6212	 1,0504	-0,1883	-0,6176	-0,1861	 1,1052	 0,1883	-0,7592	 0,0000	 0,7935	-0,4730	 1,0687	-0,0876	 1,2526	 0,7752	 0,4621	 0,9351	-0,1270	 1,2359	 1,6227	 0,0657	 2,0907	 0,4577	 2,0366	 0,2321	 1,0329
12.06.2026 10:29:10	-0,6234	 1,0643	 0,5161	 1,3694	 1,4432	 0,5373	-0,6292	 1,0468	-0,1883	-0,6183	-0,1796	 1,1074	 0,2051	-0,7592	 0,0000	 0,7942	-0,5073	 1,0680	-0,0854	 1,2512	 0,7738	 0,4628	 0,9344	-0,1277	 1,2344	 1,6001	 0,0898	 2,0870	 0,4701	 2,0199	 0,2380	 1,0139
12.06.2026 10:29:10	-0,6344	 1,0556	 0,5059	 1,3621	 1,4366	 0,4957	-0,6358	 1,0410	-0,1825	-0,6110	-0,1891	 1,1030	 0,1650	-0,7519	 0,0000	 0,7949	-0,5117	 1,0585	-0,0708	 1,2651	 0,7745	 0,4621	 0,9315	-0,1248	 1,2322	 1,5665	 0,0905	 2,0848	 0,4767	 2,0177	 0,2365	 1,0052
12.06.2026 10:29:10	-0,6380	 1,0512	 0,5124	 1,3643	 1,4366	 0,5176	-0,6285	 1,0439	-0,1825	-0,6212	-0,1993	 1,0950	 0,1475	-0,7497	 0,0000	 0,7898	-0,4774	 1,0585	-0,0774	 1,2585	 0,7716	 0,4592	 0,9278	-0,1285	 1,2278	 1,5841	 0,0949	 2,0783	 0,4920	 2,0104	 0,2635	 0,9986
12.06.2026 10:29:10	-0,6329	 1,0402	 0,5139	 1,3709	 1,4337	 0,5066	-0,6234	 1,0439	-0,1803	-0,6168	-0,2066	 1,0906	 0,1613	-0,7526	 0,0000	 0,7891	-0,4701	 1,0548	-0,0759	 1,2490	 0,7687	 0,4577	 0,9256	-0,1307	 1,2256	 1,5665	 0,0949	 2,0863	 0,4796	 2,0111	 0,2599	 1,0132
12.06.2026 10:29:10	-0,6329	 1,0358	 0,5183	 1,3797	 1,4235	 0,5110	-0,6139	 1,0453	-0,1832	-0,6095	-0,1993	 1,0921	 0,1891	-0,7570	 0,0000	 0,7884	-0,4781	 1,0483	-0,0861	 1,2402	 0,7665	 0,4570	 0,9242	-0,1329	 1,2227	 1,5162	 0,0985	 2,0834	 0,4818	 2,0235	 0,2570	 1,0475
12.06.2026 10:29:10	-0,6271	 1,0322	 0,5249	 1,3811	 1,4351	 0,5168	-0,6168	 1,0512	-0,1774	-0,6110	-0,2044	 1,0950	 0,2051	-0,7738	 0,0000	 0,7906	-0,4723	 1,0585	-0,1066	 1,2256	 0,7636	 0,4584	 0,9293	-0,1350	 1,2227	 1,5096	 0,0927	 2,0885	 0,4796	 2,0352	 0,2431	 1,0577
12.06.2026 10:29:10	-0,6482	 1,0322	 0,5249	 1,3819	 1,4089	 0,4986	-0,6198	 1,0490	-0,1869	-0,6125	-0,2066	 1,0826	 0,1562	-0,7541	 0,0000	 0,7862	-0,4774	 1,0490	-0,0927	 1,2337	 0,7628	 0,4540	 0,9205	-0,1358	 1,2176	 1,5322	 0,0942	 2,0943	 0,4708	 2,0308	 0,2431	 1,0249
12.06.2026 10:29:10	-0,6563	 1,0534	 0,5424	 1,4030	 1,4235	 0,5051	-0,6176	 1,0424	-0,1767	-0,6044	-0,1869	 1,0811	 0,1496	-0,7570	 0,0000	 0,7840	-0,4811	 1,0475	-0,0891	 1,2344	 0,7643	 0,4562	 0,9198	-0,1321	 1,2176	 1,5417	 0,0730	 2,0841	 0,4526	 2,0337	 0,2409	 1,0030
12.06.2026 10:29:10	-0,6497	 1,0592	 0,5409	 1,4045	 1,4074	 0,5044	-0,6271	 1,0468	-0,1416	-0,6037	-0,1934	 1,0767	 0,1599	-0,7679	 0,0000	 0,7876	-0,4694	 1,0461	-0,0985	 1,2307	 0,7628	 0,4577	 0,9212	-0,1336	 1,2147	 1,5622	 0,0482	 2,0914	 0,4263	 2,0381	 0,2278	 1,0147
12.06.2026 10:29:10	-0,6417	 1,0410	 0,5307	 1,3928	 1,3994	 0,4935	-0,6227	 1,0453	-0,1270	-0,6066	-0,1920	 1,0680	 0,1591	-0,7563	 0,0000	 0,7855	-0,4643	 1,0344	-0,0934	 1,2293	 0,7599	 0,4540	 0,9190	-0,1358	 1,2088	 1,5928	 0,0672	 2,0877	 0,4248	 2,0206	 0,2424	 1,0110
12.06.2026 10:29:10	-0,6402	 1,0307	 0,5322	 1,4016	 1,4030	 0,4876	-0,6110	 1,0431	-0,1591	-0,5957	-0,2000	 1,0658	 0,1438	-0,7475	 0,0000	 0,7847	-0,4752	 1,0344	-0,0964	 1,2264	 0,7592	 0,4533	 0,9190	-0,1365	 1,2067	 1,5592	 0,0620	 2,0710	 0,4037	 2,0323	 0,2431	 1,0008
12.06.2026 10:29:10	-0,6358	 1,0373	 0,5460	 1,4154	 1,3979	 0,5124	-0,5913	 1,0446	-0,1526	-0,5979	-0,2066	 1,0658	 0,1664	-0,7511	 0,0000	 0,7840	-0,4811	 1,0307	-0,1146	 1,2213	 0,7563	 0,4533	 0,9183	-0,1402	 1,2052	 1,5337	 0,0453	 2,0600	 0,4015	 2,0337	 0,2482	 0,9862
12.06.2026 10:29:10	-0,6365	 1,0410	 0,5730	 1,4271	 1,4103	 0,4986	-0,6117	 1,0402	-0,1606	-0,6022	-0,1891	 1,0643	 0,1628	-0,7526	 0,0000	 0,7847	-0,4818	 1,0271	-0,1022	 1,2227	 0,7563	 0,4519	 0,9125	-0,1380	 1,2023	 1,5534	 0,0482	 2,0651	 0,4081	 2,0374	 0,2577	 0,9950
12.06.2026 10:29:10	-0,6490	 1,0285	 0,5723	 1,4278	 1,3972	 0,4957	-0,5891	 1,0402	-0,1847	-0,5906	-0,1876	 1,0599	 0,1518	-0,7511	 0,0000	 0,7825	-0,4774	 1,0234	-0,1131	 1,2169	 0,7533	 0,4497	 0,9037	-0,1423	 1,2008	 1,5162	 0,0474	 2,0600	 0,3935	 2,0293	 0,2540	 1,0045
12.06.2026 10:29:10	-0,6504	 1,0271	 0,5949	 1,4424	 1,3943	 0,5066	-0,6533	 1,0453	-0,1533	-0,5854	-0,1942	 1,0621	 0,1679	-0,7570	 0,0000	 0,7825	-0,4562	 1,0220	-0,1110	 1,2147	 0,7519	 0,4497	 0,9052	-0,1431	 1,2045	 1,4614	 0,0577	 2,0644	 0,3935	 2,0177	 0,2577	 1,0088
12.06.2026 10:29:10	-0,6475	 1,0337	 0,6132	 1,4563	 1,3957	 0,4986	-0,6906	 1,0534	-0,1358	-0,5847	-0,1920	 1,0585	 0,1584	-0,7482	 0,0000	 0,7833	-0,4628	 1,0249	-0,1015	 1,2176	 0,7511	 0,4460	 0,9001	-0,1423	 1,1979	 1,4549	 0,0686	 2,0600	 0,3854	 2,0089	 0,2708	 1,0030
12.06.2026 10:29:10	-0,6402	 1,0315	 0,5986	 1,4424	 1,3884	 0,5088	-0,5767	 1,0534	-0,1540	-0,5796	-0,1934	 1,0534	 0,1569	-0,7446	 0,0000	 0,7782	-0,4679	 1,0293	-0,1029	 1,2154	 0,7497	 0,4431	 0,8971	-0,1431	 1,1935	 1,4738	 0,0613	 2,0469	 0,3847	 1,9965	 0,2577	 0,9840
12.06.2026 10:29:10	-0,6438	 1,0125	 0,5920	 1,4432	 1,3906	 0,5037	-0,5971	 1,0461	-0,1723	-0,5833	-0,2059	 1,0497	 0,1270	-0,7439	 0,0000	 0,7796	-0,4767	 1,0227	-0,1022	 1,2140	 0,7490	 0,4416	 0,8928	-0,1423	 1,1884	 1,4943	 0,0547	 2,0476	 0,3986	 1,9958	 0,2416	 0,9745
12.06.2026 10:29:10	-0,6475	 1,0015	 0,5906	 1,4505	 1,3760	 0,5051	-0,6000	 1,0468	-0,1380	-0,5796	-0,1942	 1,0483	 0,1533	-0,7453	 0,0000	 0,7782	-0,4913	 1,0161	-0,1037	 1,2110	 0,7468	 0,4402	 0,8884	-0,1423	 1,1826	 1,5249	 0,0482	 2,0206	 0,4044	 1,9826	 0,2445	 0,9680
12.06.2026 10:29:10	-0,6687	 1,0023	 0,5891	 1,4410	 1,3475	 0,4971	-0,5796	 1,0468	-0,1350	-0,5803	-0,1942	 1,0461	 0,1621	-0,7439	 0,0000	 0,7774	-0,4716	 1,0169	-0,0964	 1,2132	 0,7511	 0,4431	 0,8906	-0,1380	 1,1848	 1,5695	 0,0460	 2,0235	 0,4205	 1,9870	 0,2482	 0,9920
12.06.2026 10:29:10	-0,6730	 0,9993	 0,5971	 1,4432	 1,3665	 0,4949	-0,5935	 1,0395	-0,1482	-0,5840	-0,2153	 1,0461	 0,1467	-0,7446	 0,0000	 0,7774	-0,4562	 1,0103	-0,0971	 1,2140	 0,7497	 0,4453	 0,8928	-0,1358	 1,1840	 1,5461	 0,0606	 2,0388	 0,4248	 2,0016	 0,2365	 1,0015
12.06.2026 10:29:10	-0,6504	 1,0059	 0,6139	 1,4629	 1,3826	 0,5110	-0,5687	 1,0388	-0,1569	-0,5818	-0,1964	 1,0497	 0,1577	-0,7424	 0,0000	 0,7716	-0,4577	 1,0103	-0,1000	 1,2110	 0,7475	 0,4424	 0,8928	-0,1350	 1,1848	 1,5081	 0,0752	 2,0301	 0,4380	 2,0162	 0,2351	 1,0059
12.06.2026 10:29:10	-0,6577	 0,9913	 0,6117	 1,4658	 1,3753	 0,5073	-0,5694	 1,0461	-0,1548	-0,5825	-0,2022	 1,0431	 0,1504	-0,7380	 0,0000	 0,7687	-0,4716	 1,0103	-0,1022	 1,2081	 0,7460	 0,4394	 0,8898	-0,1394	 1,1826	 1,5242	 0,0818	 2,0045	 0,4453	 2,0067	 0,2577	 1,0008
12.06.2026 10:29:10	-0,6657	 0,9869	 0,6183	 1,4731	 1,3636	 0,5008	-0,6044	 1,0446	-0,1489	-0,5701	-0,1971	 1,0431	 0,1628	-0,7380	 0,0000	 0,7687	-0,4701	 1,0103	-0,1015	 1,2045	 0,7439	 0,4409	 0,8913	-0,1416	 1,1833	 1,4943	 0,1175	 1,9870	 0,4540	 1,9746	 0,2635	 0,9789
12.06.2026 10:29:10	-0,6745	 0,9942	 0,6365	 1,4738	 1,3556	 0,4927	-0,6234	 1,0483	-0,1518	-0,5803	-0,1964	 1,0410	 0,1504	-0,7366	 0,0000	 0,7657	-0,4752	 1,0103	-0,0985	 1,2015	 0,7409	 0,4387	 0,8862	-0,1423	 1,1811	 1,4366	 0,1423	 1,9921	 0,4752	 1,9658	 0,2686	 0,9753
12.06.2026 10:29:10	-0,6636	 0,9899	 0,6365	 1,4614	 1,3563	 0,4942	-0,6307	 1,0497	-0,1088	-0,5840	-0,2124	 1,0315	 0,1314	-0,7431	 0,0000	 0,7672	-0,4716	 1,0001	-0,1051	 1,1964	 0,7387	 0,4380	 0,8825	-0,1460	 1,1775	 1,4242	 0,1226	 2,0140	 0,4555	 1,9819	 0,2540	 0,9920
12.06.2026 10:29:10	-0,6526	 0,9862	 0,6000	 1,4585	 1,3402	 0,4891	-0,5679	 1,0410	-0,1372	-0,5723	-0,2022	 1,0220	 0,1095	-0,7307	 0,0000	 0,7657	-0,4796	 0,9899	-0,0876	 1,2059	 0,7402	 0,4365	 0,8789	-0,1445	 1,1760	 1,4344	 0,1037	 2,0264	 0,4482	 1,9804	 0,2270	 0,9753
12.06.2026 10:29:10	-0,6541	 0,9767	 0,6139	 1,4592	 1,3454	 0,4920	-0,5687	 1,0395	-0,1496	-0,5767	-0,2153	 1,0227	 0,0985	-0,7300	 0,0000	 0,7643	-0,5008	 0,9884	-0,0847	 1,2059	 0,7409	 0,4365	 0,8789	-0,1409	 1,1767	 1,4541	 0,1088	 2,0206	 0,4453	 1,9724	 0,2234	 0,9599
12.06.2026 10:29:10	-0,6300	 0,9928	 0,6417	 1,4731	 1,3811	 0,5234	-0,6044	 1,0461	-0,1241	-0,5716	-0,2022	 1,0358	 0,1715	-0,7460	 0,0000	 0,7672	-0,4745	 1,0008	-0,1263	 1,1804	 0,7373	 0,4394	 0,8847	-0,1445	 1,1804	 1,4884	 0,1022	 2,0242	 0,4307	 1,9790	 0,2219	 0,9972
12.06.2026 10:29:10	-0,6417	 0,9891	 0,6387	 1,4622	 1,3585	 0,5088	-0,5146	 1,0483	-0,1263	-0,5767	-0,2044	 1,0256	 0,1964	-0,7307	 0,0000	 0,7636	-0,4847	 0,9935	-0,1139	 1,1848	 0,7351	 0,4365	 0,8796	-0,1460	 1,1738	 1,5257	 0,0723	 2,0147	 0,4248	 1,9593	 0,2059	 0,9993
12.06.2026 10:29:10	-0,6679	 0,9680	 0,6438	 1,4549	 1,3293	 0,4657	-0,5884	 1,0402	-0,0971	-0,5723	-0,2161	 1,0154	 0,1934	-0,7168	 0,0000	 0,7643	-0,4825	 0,9818	-0,0993	 1,1942	 0,7351	 0,4329	 0,8745	-0,1453	 1,1709	 1,5023	 0,0766	 2,0169	 0,4248	 1,9527	 0,2029	 0,9920
12.06.2026 10:29:10	-0,6592	 0,9672	 0,6219	 1,4490	 1,3417	 0,4869	-0,6241	 1,0672	-0,1037	-0,5716	-0,2110	 1,0198	 0,1584	-0,7300	 0,0000	 0,7614	-0,4628	 0,9869	-0,1000	 1,1869	 0,7285	 0,4307	 0,8745	-0,1467	 1,1709	 1,4622	 0,0869	 2,0257	 0,4256	 1,9644	 0,2059	 0,9745
12.06.2026 10:29:10	-0,6636	 0,9643	 0,6044	 1,4395	 1,3461	 0,5066	-0,5387	 1,0775	-0,1197	-0,5687	-0,2161	 1,0183	 0,1219	-0,7446	 0,0000	 0,7643	-0,4679	 0,9877	-0,1124	 1,1745	 0,7256	 0,4329	 0,8745	-0,1511	 1,1687	 1,4826	 0,0847	 2,0220	 0,4212	 1,9461	 0,1891	 0,9628
12.06.2026 10:29:10	-0,6752	 0,9672	 0,6307	 1,4622	 1,3256	 0,4949	-0,5672	 1,0446	-0,1241	-0,5592	-0,2073	 1,0139	 0,1219	-0,7409	 0,0000	 0,7650	-0,4599	 0,9833	-0,0796	 1,1789	 0,7300	 0,4373	 0,8891	-0,1460	 1,1723	 1,4716	 0,0847	 2,0191	 0,4300	 1,9337	 0,1978	 0,9585
12.06.2026 10:29:10	-0,6730	 0,9621	 0,6789	 1,4833	 1,3162	 0,5030	-0,5548	 1,0227	-0,1336	-0,5643	-0,2168	 1,0161	 0,1226	-0,7366	 0,0000	 0,7628	-0,4650	 0,9840	-0,0832	 1,1826	 0,7314	 0,4409	 0,9023	-0,1423	 1,1760	 1,4096	 0,0861	 2,0147	 0,4321	 1,9271	 0,2256	 0,9453
12.06.2026 10:29:10	-0,6643	 0,9526	 0,7044	 1,4994	 1,3388	 0,5205	-0,5584	 1,0264	-0,1730	-0,5599	-0,2146	 1,0191	 0,1606	-0,7336	 0,0000	 0,7628	-0,4504	 0,9899	-0,1526	 1,1694	 0,7271	 0,4329	 0,8701	-0,1504	 1,1680	 1,3979	 0,1066	 2,0133	 0,4227	 1,9286	 0,2285	 0,9534
12.06.2026 10:29:10	-0,6563	 0,9446	 0,6906	 1,4921	 1,3351	 0,5234	-0,5752	 1,0337	-0,1183	-0,5643	-0,2117	 1,0161	 0,1409	-0,7336	 0,0000	 0,7577	-0,4606	 0,9818	-0,1219	 1,1716	 0,7241	 0,4263	 0,8541	-0,1496	 1,1599	 1,4096	 0,1212	 2,0053	 0,4380	 1,9293	 0,2190	 0,9278
12.06.2026 10:29:10	-0,6665	 0,9322	 0,6132	 1,4556	 1,3264	 0,5161	-0,5358	 1,0417	-0,1591	-0,5760	-0,2292	 1,0037	 0,1416	-0,7322	 0,0000	 0,7563	-0,5219	 0,9687	-0,1168	 1,1687	 0,7183	 0,4219	 0,8563	-0,1548	 1,1534	 1,4249	 0,1022	 2,0089	 0,4387	 1,9330	 0,2029	 0,9424
12.06.2026 10:29:10	-0,6672	 0,9293	 0,5811	 1,4286	 1,3227	 0,5124	-0,5132	 1,0490	-0,1263	-0,5825	-0,2234	 0,9964	 0,1475	-0,7307	 0,0000	 0,7511	-0,4942	 0,9643	-0,1110	 1,1702	 0,7161	 0,4190	 0,8512	-0,1548	 1,1490	 1,4600	 0,0810	 2,0264	 0,4168	 1,9512	 0,1942	 0,9891
12.06.2026 10:29:10	-0,6701	 0,9329	 0,6117	 1,4264	 1,3067	 0,5066	-0,5964	 1,0461	-0,1336	-0,5876	-0,2263	 0,9972	 0,1256	-0,7249	 0,0000	 0,7497	-0,4533	 0,9607	-0,1073	 1,1709	 0,7168	 0,4183	 0,8519	-0,1540	 1,1446	 1,4972	 0,0737	 2,0461	 0,3927	 1,9709	 0,1847	 1,0205
12.06.2026 10:29:10	-0,6774	 0,9329	 0,6438	 1,4600	 1,3059	 0,5117	-0,6022	 1,0483	-0,2117	-0,5745	-0,2285	 0,9913	 0,1270	-0,7227	 0,0000	 0,7504	-0,4665	 0,9563	-0,1307	 1,1599	 0,7110	 0,4139	 0,8460	-0,1606	 1,1380	 1,4804	 0,0438	 2,0651	 0,3621	 1,9914	 0,1628	 1,0417
12.06.2026 10:29:10	-0,6599	 0,9293	 0,6789	 1,4746	 1,3256	 0,5103	-0,5154	 1,0227	-0,1066	-0,5679	-0,2285	 0,9950	 0,1453	-0,7234	 0,0000	 0,7504	-0,4657	 0,9592	-0,1212	 1,1599	 0,7132	 0,4183	 0,8468	-0,1577	 1,1380	 1,4373	 0,0591	 2,0476	 0,3913	 1,9695	 0,1905	 1,0118
12.06.2026 10:29:10	-0,6628	 0,9198	 0,6913	 1,4468	 1,3162	 0,5124	-0,5665	 1,0234	-0,1110	-0,5723	-0,2467	 0,9906	 0,1212	-0,7190	 0,0000	 0,7504	-0,4679	 0,9563	-0,1183	 1,1643	 0,7139	 0,4175	 0,8446	-0,1577	 1,1329	 1,4534	 0,0832	 2,0235	 0,4059	 1,9542	 0,2073	 0,9972
12.06.2026 10:29:10	-0,6935	 0,9110	 0,7008	 1,4549	 1,2833	 0,4971	-0,5482	 1,0234	-0,0993	-0,5767	-0,2416	 0,9774	 0,1051	-0,7139	 0,0000	 0,7424	-0,4869	 0,9402	-0,1168	 1,1599	 0,7088	 0,4110	 0,8344	-0,1642	 1,1220	 1,4249	 0,0891	 1,9972	 0,4270	 1,9388	 0,2248	 0,9716
12.06.2026 10:29:10	-0,6891	 0,9117	 0,6913	 1,4753	 1,2950	 0,4891	-0,5460	 1,0154	-0,1380	-0,5760	-0,2314	 0,9891	 0,1475	-0,7212	 0,0000	 0,7402	-0,5000	 0,9446	-0,1131	 1,1548	 0,7088	 0,4102	 0,8322	-0,1606	 1,1205	 1,3614	 0,1161	 1,9556	 0,4672	 1,9067	 0,2570	 0,9424
12.06.2026 10:29:10	-0,6650	 0,9220	 0,6409	 1,4775	 1,3293	 0,5139	-0,5453	 1,0249	-0,1336	-0,5650	-0,2329	 0,9899	 0,1445	-0,7373	 0,0000	 0,7439	-0,4701	 0,9534	-0,1204	 1,1541	 0,7088	 0,4124	 0,8380	-0,1599	 1,1220	 1,3585	 0,1110	 1,9483	 0,4686	 1,9052	 0,2570	 0,9388
12.06.2026 10:29:10	-0,6694	 0,9183	 0,5541	 1,4461	 1,3008	 0,4920	-0,5234	 1,0307	-0,0869	-0,5738	-0,2343	 0,9767	 0,1241	-0,7263	 0,0000	 0,7395	-0,4592	 0,9453	-0,1044	 1,1592	 0,7081	 0,4088	 0,8329	-0,1591	 1,1147	 1,3746	 0,1263	 1,9593	 0,4832	 1,9031	 0,2511	 0,9052
12.06.2026 10:29:10	-0,6840	 0,9023	 0,5373	 1,4125	 1,2709	 0,4723	-0,5460	 1,0373	-0,1029	-0,5854	-0,2394	 0,9767	 0,1139	-0,7183	 0,0000	 0,7351	-0,4752	 0,9431	-0,0985	 1,1585	 0,7059	 0,4044	 0,8271	-0,1591	 1,1074	 1,3906	 0,1511	 1,9585	 0,4832	 1,8979	 0,2511	 0,8979
12.06.2026 10:29:10	-0,6723	 0,9147	 0,6482	 1,4330	 1,3067	 0,4986	-0,5460	 1,0220	-0,1212	-0,5781	-0,2351	 0,9840	 0,1423	-0,7241	 0,0000	 0,7380	-0,4701	 0,9504	-0,1350	 1,1424	 0,7044	 0,4081	 0,8329	-0,1606	 1,1103	 1,4191	 0,1504	 1,9512	 0,4796	 1,9074	 0,2518	 0,9169
12.06.2026 10:29:10	-0,6665	 0,9198	 0,6913	 1,4403	 1,3037	 0,5095	-0,5292	 1,0096	-0,1431	-0,5679	-0,2248	 0,9855	 0,1577	-0,7205	 0,0000	 0,7402	-0,4606	 0,9490	-0,1277	 1,1431	 0,7066	 0,4110	 0,8366	-0,1562	 1,1147	 1,4519	 0,1460	 1,9425	 0,4759	 1,9155	 0,2372	 0,9263
12.06.2026 10:29:10	-0,6577	 0,9176	 0,6563	 1,4468	 1,3023	 0,5008	-0,5599	 1,0037	-0,1241	-0,5657	-0,2256	 0,9840	 0,1387	-0,7212	 0,0000	 0,7409	-0,4613	 0,9504	-0,1175	 1,1483	 0,7088	 0,4132	 0,8358	-0,1562	 1,1161	 1,4227	 0,1270	 1,9534	 0,4526	 1,9198	 0,2212	 0,9154
12.06.2026 10:29:10	-0,6636	 0,9074	 0,6088	 1,4103	 1,2957	 0,4935	-0,5906	 1,0154	-0,1044	-0,5752	-0,2256	 0,9818	 0,1358	-0,7198	 0,0000	 0,7380	-0,4905	 0,9497	-0,1204	 1,1431	 0,7037	 0,4102	 0,8314	-0,1591	 1,1125	 1,3826	 0,0905	 1,9702	 0,4278	 1,9330	 0,1964	 0,9154
12.06.2026 10:29:10	-0,6614	 0,8928	 0,6168	 1,3767	 1,2848	 0,4891	-0,5562	 1,0271	-0,0971	-0,5847	-0,2424	 0,9709	 0,1299	-0,7205	 0,0000	 0,7351	-0,5066	 0,9424	-0,1183	 1,1402	 0,6986	 0,4059	 0,8307	-0,1621	 1,1096	 1,3994	 0,0657	 1,9709	 0,4051	 1,9403	 0,1759	 0,9373
12.06.2026 10:29:10	-0,6526	 0,9008	 0,7001	 1,4089	 1,2935	 0,4898	-0,5716	 1,0059	-0,1110	-0,5745	-0,2533	 0,9716	 0,1321	-0,7168	 0,0000	 0,7351	-0,4701	 0,9461	-0,1197	 1,1395	 0,7008	 0,4088	 0,8344	-0,1606	 1,1140	 1,3746	 0,0818	 1,9505	 0,4175	 1,9235	 0,1942	 0,9183
12.06.2026 10:29:10	-0,6709	 0,8935	 0,7110	 1,4359	 1,2709	 0,4884	-0,5511	 0,9920	-0,1467	-0,5628	-0,2292	 0,9709	 0,1511	-0,7059	 0,0000	 0,7329	-0,4497	 0,9366	-0,1197	 1,1417	 0,7030	 0,4095	 0,8300	-0,1599	 1,1118	 1,3191	 0,0956	 1,9359	 0,4336	 1,9228	 0,2029	 0,9125
12.06.2026 10:29:10	-0,6657	 0,8877	 0,7103	 1,4497	 1,2818	 0,4942	-0,5548	 0,9891	-0,1569	-0,5584	-0,2329	 0,9701	 0,1423	-0,7132	 0,0000	 0,7329	-0,4533	 0,9380	-0,1168	 1,1431	 0,7030	 0,4095	 0,8322	-0,1591	 1,1125	 1,3154	 0,1044	 1,9388	 0,4263	 1,9359	 0,1964	 0,9205
12.06.2026 10:29:10	-0,6577	 0,8993	 0,6986	 1,4476	 1,3030	 0,5022	-0,5577	 0,9891	-0,1445	-0,5584	-0,2336	 0,9723	 0,1394	-0,7212	 0,0000	 0,7314	-0,4584	 0,9409	-0,1212	 1,1373	 0,7015	 0,4102	 0,8322	-0,1591	 1,1118	 1,3329	 0,0956	 1,9578	 0,4329	 1,9469	 0,1956	 0,9154
12.06.2026 10:29:10	-0,6599	 0,8979	 0,6548	 1,4315	 1,2855	 0,4927	-0,5460	 0,9899	-0,1453	-0,5672	-0,2270	 0,9665	 0,1416	-0,7095	 0,0000	 0,7263	-0,4672	 0,9329	-0,1212	 1,1388	 0,7008	 0,4073	 0,8271	-0,1606	 1,1088	 1,3461	 0,0912	 1,9286	 0,4292	 1,9344	 0,1832	 0,8862
12.06.2026 10:29:10	-0,6665	 0,8884	 0,6468	 1,4096	 1,2585	 0,4811	-0,5373	 0,9906	-0,1445	-0,5752	-0,2548	 0,9650	 0,1365	-0,7044	 0,0000	 0,7249	-0,4643	 0,9336	-0,1153	 1,1410	 0,6993	 0,4059	 0,8271	-0,1584	 1,1081	 1,3789	 0,1051	 1,8972	 0,4219	 1,9133	 0,1869	 0,8599
12.06.2026 10:29:10	-0,6592	 0,8950	 0,6438	 1,3994	 1,2789	 0,4847	-0,5380	 0,9942	-0,1416	-0,5701	-0,2416	 0,9680	 0,1365	-0,7205	 0,0000	 0,7271	-0,4694	 0,9358	-0,1175	 1,1285	 0,6971	 0,4073	 0,8285	-0,1584	 1,1103	 1,4191	 0,1117	 1,9140	 0,4227	 1,9147	 0,2066	 0,8818
12.06.2026 10:29:10	-0,6650	 0,8847	 0,6409	 1,3943	 1,2833	 0,4832	-0,5635	 0,9862	-0,1365	-0,5738	-0,2161	 0,9672	 0,1197	-0,7161	 0,0000	 0,7249	-0,4796	 0,9329	-0,1131	 1,1307	 0,6986	 0,4088	 0,8285	-0,1562	 1,1140	 1,4008	 0,1102	 1,9162	 0,4110	 1,9111	 0,2022	 0,8884
12.06.2026 10:29:10	-0,6636	 0,8745	 0,6205	 1,3892	 1,2760	 0,4745	-0,5395	 0,9826	-0,1416	-0,5862	-0,2285	 0,9607	 0,1175	-0,7095	 0,0000	 0,7234	-0,4942	 0,9344	-0,1153	 1,1315	 0,6957	 0,4081	 0,8263	-0,1584	 1,1118	 1,3629	 0,1080	 1,9228	 0,4088	 1,9089	 0,2022	 0,8825
12.06.2026 10:29:10	-0,6665	 0,8847	 0,5811	 1,3892	 1,2672	 0,4665	-0,5270	 0,9877	-0,1453	-0,5796	-0,2234	 0,9607	 0,1197	-0,7081	 0,0000	 0,7241	-0,4913	 0,9315	-0,1146	 1,1300	 0,6920	 0,4066	 0,8220	-0,1591	 1,1081	 1,3709	 0,1241	 1,9147	 0,4219	 1,9009	 0,2285	 0,8898
12.06.2026 10:29:10	-0,6672	 0,9001	 0,6030	 1,3965	 1,2592	 0,4701	-0,5343	 0,9862	-0,1329	-0,5694	-0,2132	 0,9672	 0,1226	-0,7074	 0,0000	 0,7249	-0,4657	 0,9249	-0,1197	 1,1278	 0,6928	 0,4073	 0,8241	-0,1591	 1,1059	 1,3468	 0,1277	 1,9045	 0,4285	 1,9023	 0,2358	 0,9088
12.06.2026 10:29:10	-0,6687	 0,9044	 0,6344	 1,3884	 1,2599	 0,4774	-0,5460	 0,9789	-0,1372	-0,5687	-0,2256	 0,9548	 0,1190	-0,7059	 0,0000	 0,7220	-0,4789	 0,9249	-0,1146	 1,1293	 0,6928	 0,4066	 0,8249	-0,1584	 1,1030	 1,2884	 0,1124	 1,9067	 0,4365	 1,9155	 0,2307	 0,9263
12.06.2026 10:29:10	-0,6701	 0,9037	 0,6146	 1,3694	 1,2548	 0,4686	-0,5489	 0,9731	-0,1423	-0,5738	-0,2197	 0,9541	 0,1153	-0,7022	 0,0000	 0,7205	-0,4657	 0,9293	-0,1037	 1,1351	 0,6942	 0,4051	 0,8220	-0,1533	 1,1030	 1,2818	 0,1000	 1,9191	 0,4380	 1,9147	 0,2299	 0,9147
12.06.2026 10:29:10	-0,6497	 0,9001	 0,5906	 1,3629	 1,2658	 0,4708	-0,5475	 0,9789	-0,1409	-0,5701	-0,2190	 0,9570	 0,1314	-0,7147	 0,0000	 0,7227	-0,4373	 0,9293	-0,1190	 1,1205	 0,6928	 0,4051	 0,8227	-0,1555	 1,1030	 1,3023	 0,0912	 1,9271	 0,4278	 1,9031	 0,2088	 0,9059
12.06.2026 10:29:10	-0,6657	 0,8855	 0,5957	 1,3592	 1,2621	 0,4730	-0,5504	 0,9789	-0,1445	-0,5657	-0,2314	 0,9512	 0,1197	-0,7008	 0,0000	 0,7183	-0,4497	 0,9256	-0,1219	 1,1212	 0,6906	 0,4015	 0,8176	-0,1584	 1,0972	 1,3227	 0,0905	 1,9009	 0,4329	 1,8629	 0,1927	 0,8855
12.06.2026 10:29:10	-0,6497	 0,8855	 0,6176	 1,3621	 1,2694	 0,4803	-0,5475	 0,9804	-0,1380	-0,5774	-0,2314	 0,9555	 0,1219	-0,6986	 0,0000	 0,7147	-0,4599	 0,9249	-0,1234	 1,1234	 0,6898	 0,4000	 0,8147	-0,1555	 1,0950	 1,3527	 0,1161	 1,8695	 0,4665	 1,8301	 0,2132	 0,8606
12.06.2026 10:29:10	-0,6322	 0,8825	 0,6256	 1,3658	 1,2505	 0,4781	-0,5446	 0,9731	-0,1321	-0,5811	-0,2372	 0,9534	 0,1635	-0,7030	 0,0000	 0,7154	-0,4577	 0,9249	-0,1197	 1,1205	 0,6876	 0,3986	 0,8125	-0,1548	 1,0921	 1,3877	 0,1642	 1,8556	 0,5132	 1,8250	 0,2548	 0,8541
12.06.2026 10:29:10	-0,6402	 0,8745	 0,6073	 1,3490	 1,2461	 0,4730	-0,5497	 0,9731	-0,1365	-0,5716	-0,2321	 0,9468	 0,1467	-0,6986	 0,0000	 0,7154	-0,4635	 0,9117	-0,1197	 1,1176	 0,6847	 0,3942	 0,8015	-0,1628	 1,0848	 1,3702	 0,1679	 1,8571	 0,5270	 1,8257	 0,2664	 0,8417
12.06.2026 10:29:10	-0,6380	 0,8658	 0,5957	 1,3329	 1,2694	 0,4672	-0,5694	 0,9753	-0,1409	-0,5694	-0,2460	 0,9446	 0,1102	-0,7030	 0,0000	 0,7125	-0,4730	 0,9110	-0,1248	 1,1125	 0,6811	 0,3913	 0,7993	-0,1657	 1,0811	 1,3329	 0,1482	 1,8717	 0,5000	 1,8220	 0,2438	 0,8431
12.06.2026 10:29:10	-0,6497	 0,8555	 0,5920	 1,3300	 1,2585	 0,4621	-0,5387	 0,9643	-0,1409	-0,5862	-0,2438	 0,9468	 0,1168	-0,6979	 0,0000	 0,7052	-0,4986	 0,9147	-0,1175	 1,1147	 0,6789	 0,3876	 0,7979	-0,1628	 1,0796	 1,3432	 0,1402	 1,8724	 0,4789	 1,8235	 0,2146	 0,8533
12.06.2026 10:29:10	-0,6438	 0,8519	 0,5475	 1,3300	 1,2548	 0,4635	-0,5154	 0,9680	-0,1467	-0,5876	-0,2372	 0,9351	 0,1307	-0,6957	 0,0000	 0,7037	-0,5409	 0,9030	-0,1292	 1,1067	 0,6745	 0,3832	 0,7862	-0,1715	 1,0702	 1,3183	 0,1168	 1,8731	 0,4621	 1,8512	 0,1956	 0,8643
12.06.2026 10:29:10	-0,6446	 0,8468	 0,5234	 1,3256	 1,2322	 0,4621	-0,5380	 0,9672	-0,1467	-0,5854	-0,2482	 0,9329	 0,1511	-0,6971	 0,0000	 0,7015	-0,5015	 0,9001	-0,1263	 1,1045	 0,6738	 0,3825	 0,7833	-0,1708	 1,0702	 1,2702	 0,1161	 1,8702	 0,4723	 1,8417	 0,1978	 0,8614
12.06.2026 10:29:10	-0,6621	 0,8497	 0,5621	 1,3351	 1,2213	 0,4679	-0,5409	 0,9599	-0,1467	-0,5876	-0,2475	 0,9380	 0,1482	-0,6957	 0,0000	 0,6979	-0,4467	 0,9015	-0,1212	 1,1074	 0,6760	 0,3832	 0,7876	-0,1642	 1,0738	 1,2672	 0,1139	 1,8855	 0,4708	 1,8308	 0,1825	 0,8672
12.06.2026 10:29:10	-0,6643	 0,8614	 0,5927	 1,3454	 1,2453	 0,4570	-0,5489	 0,9555	-0,1438	-0,5752	-0,2562	 0,9315	 0,1183	-0,6949	 0,0000	 0,7008	-0,4402	 0,9059	-0,1270	 1,1030	 0,6760	 0,3840	 0,7891	-0,1657	 1,0716	 1,2862	 0,1073	 1,8885	 0,4358	 1,8279	 0,1548	 0,8424
12.06.2026 10:29:10	-0,6541	 0,8694	 0,6037	 1,3475	 1,2490	 0,4606	-0,5497	 0,9534	-0,1460	-0,5730	-0,2285	 0,9336	 0,1095	-0,6964	 0,0000	 0,6979	-0,4526	 0,9066	-0,1263	 1,1023	 0,6738	 0,3832	 0,7847	-0,1621	 1,0709	 1,3037	 0,1022	 1,8666	 0,4314	 1,8023	 0,1628	 0,8190
12.06.2026 10:29:10	-0,6431	 0,8767	 0,5942	 1,3381	 1,2483	 0,4599	-0,5577	 0,9519	-0,1518	-0,5723	-0,2153	 0,9388	 0,1131	-0,6979	 0,0000	 0,6957	-0,4665	 0,9030	-0,1161	 1,1030	 0,6752	 0,3832	 0,7855	-0,1569	 1,0687	 1,3308	 0,0971	 1,8797	 0,4424	 1,8242	 0,1818	 0,8512
12.06.2026 10:29:10	-0,6402	 0,8804	 0,5584	 1,3227	 1,2432	 0,4511	-0,5541	 0,9482	-0,1475	-0,5730	-0,2343	 0,9504	 0,1037	-0,7001	 0,0000	 0,6971	-0,4548	 0,9103	-0,1153	 1,1045	 0,6760	 0,3840	 0,7884	-0,1518	 1,0694	 1,3651	 0,0978	 1,8826	 0,4387	 1,8396	 0,1818	 0,8526
12.06.2026 10:29:10	-0,6468	 0,8636	 0,5402	 1,3110	 1,2278	 0,4519	-0,5197	 0,9504	-0,1402	-0,5811	-0,2387	 0,9329	 0,1168	-0,6869	 0,0000	 0,6949	-0,4730	 0,8993	-0,0869	 1,1074	 0,6709	 0,3796	 0,7796	-0,1533	 1,0636	 1,3410	 0,1022	 1,8921	 0,4584	 1,8483	 0,1781	 0,8526
12.06.2026 10:29:10	-0,6497	 0,8614	 0,5329	 1,3001	 1,2271	 0,4431	-0,5424	 0,9482	-0,1460	-0,5854	-0,2402	 0,9132	 0,0978	-0,6855	 0,0000	 0,6949	-0,4898	 0,8825	-0,0803	 1,1074	 0,6694	 0,3767	 0,7760	-0,1599	 1,0577	 1,3045	 0,0964	 1,8899	 0,4789	 1,8469	 0,1701	 0,8504
12.06.2026 10:29:10	-0,6402	 0,8621	 0,5351	 1,3023	 1,2337	 0,4519	-0,5592	 0,9534	-0,1540	-0,5767	-0,2256	 0,9278	 0,0905	-0,6986	 0,0000	 0,6935	-0,4628	 0,8913	-0,1584	 1,0906	 0,6672	 0,3796	 0,7811	-0,1694	 1,0585	 1,3220	 0,0686	 1,9009	 0,4665	 1,8469	 0,1686	 0,8709
12.06.2026 10:29:10	-0,6307	 0,8497	 0,5453	 1,2928	 1,2380	 0,4613	-0,5387	 0,9526	-0,1416	-0,5745	-0,2263	 0,9256	 0,1445	-0,6979	 0,0000	 0,6928	-0,4592	 0,8884	-0,1453	 1,0840	 0,6657	 0,3825	 0,7833	-0,1694	 1,0585	 1,3059	 0,0679	 1,9133	 0,4504	 1,8410	 0,1569	 0,8789
12.06.2026 10:29:10	-0,6380	 0,8570	 0,5621	 1,2935	 1,2264	 0,4548	-0,5380	 0,9409	-0,1416	-0,5738	-0,2292	 0,9285	 0,1321	-0,6898	 0,0000	 0,6906	-0,4599	 0,8804	-0,1117	 1,1008	 0,6694	 0,3818	 0,7789	-0,1621	 1,0577	 1,2497	 0,0788	 1,9162	 0,4497	 1,8308	 0,1460	 0,8898
12.06.2026 10:29:10	-0,6519	 0,8723	 0,5628	 1,3081	 1,2213	 0,4555	-0,5373	 0,9395	-0,1350	-0,5650	-0,2197	 0,9205	 0,1409	-0,6855	 0,0000	 0,6913	-0,4599	 0,8906	-0,1285	 1,0942	 0,6679	 0,3818	 0,7796	-0,1635	 1,0577	 1,2475	 0,0839	 1,9286	 0,4497	 1,8520	 0,1606	 0,9147
12.06.2026 10:29:10	-0,6387	 0,8701	 0,5526	 1,3059	 1,2359	 0,4555	-0,5438	 0,9388	-0,1511	-0,5635	-0,2241	 0,9161	 0,1591	-0,6862	 0,0000	 0,6906	-0,4745	 0,8942	-0,1256	 1,0869	 0,6687	 0,3832	 0,7825	-0,1621	 1,0592	 1,2709	 0,0876	 1,9235	 0,4438	 1,8622	 0,1606	 0,8935
12.06.2026 10:29:10	-0,6438	 0,8512	 0,5489	 1,2884	 1,2154	 0,4475	-0,5380	 0,9395	-0,1540	-0,5694	-0,2438	 0,9242	 0,1146	-0,6796	 0,0000	 0,6906	-0,4679	 0,8891	-0,1139	 1,0935	 0,6716	 0,3840	 0,7789	-0,1591	 1,0577	 1,2782	 0,0730	 1,9213	 0,4146	 1,8695	 0,1314	 0,8928
12.06.2026 10:29:10	-0,6482	 0,8402	 0,5329	 1,2767	 1,2059	 0,4489	-0,5329	 0,9329	-0,1372	-0,5789	-0,2467	 0,9161	 0,1124	-0,6760	 0,0000	 0,6906	-0,4621	 0,8862	-0,1139	 1,0928	 0,6716	 0,3847	 0,7767	-0,1569	 1,0577	 1,3169	 0,0752	 1,9045	 0,3964	 1,8644	 0,1387	 0,8942
12.06.2026 10:29:10	-0,6190	 0,8351	 0,5358	 1,2833	 1,2286	 0,4489	-0,5519	 0,9285	-0,1482	-0,5789	-0,2409	 0,9220	 0,1183	-0,6803	 0,0000	 0,6913	-0,4570	 0,8920	-0,1204	 1,0994	 0,6745	 0,3876	 0,7811	-0,1518	 1,0621	 1,3665	 0,0686	 1,9060	 0,3883	 1,8775	 0,1475	 0,9190
12.06.2026 10:29:10	-0,6132	 0,8395	 0,5395	 1,2906	 1,2322	 0,4540	-0,5358	 0,9315	-0,1431	-0,5730	-0,2453	 0,9220	 0,1277	-0,6818	 0,0000	 0,6942	-0,4467	 0,8928	-0,1168	 1,0928	 0,6730	 0,3905	 0,7840	-0,1526	 1,0629	 1,3329	 0,0657	 1,9206	 0,3781	 1,8819	 0,1423	 0,9263
12.06.2026 10:29:10	-0,6161	 0,8460	 0,5351	 1,2848	 1,2227	 0,4497	-0,5395	 0,9293	-0,1460	-0,5708	-0,2387	 0,9278	 0,1482	-0,6855	 0,0000	 0,6928	-0,4453	 0,8869	-0,1117	 1,0884	 0,6716	 0,3913	 0,7855	-0,1467	 1,0650	 1,2913	 0,0774	 1,9045	 0,3774	 1,8607	 0,1219	 0,8964
12.06.2026 10:29:10	-0,6227	 0,8475	 0,5249	 1,2760	 1,2081	 0,4336	-0,5475	 0,9293	-0,1431	-0,5701	-0,2321	 0,9198	 0,1183	-0,6840	 0,0000	 0,6906	-0,4540	 0,8898	-0,1117	 1,0891	 0,6709	 0,3913	 0,7862	-0,1467	 1,0650	 1,3096	 0,0825	 1,8841	 0,3840	 1,8687	 0,1146	 0,8964
12.06.2026 10:29:10	-0,6271	 0,8344	 0,5227	 1,2665	 1,2096	 0,4373	-0,5314	 0,9293	-0,1438	-0,5752	-0,2336	 0,9074	 0,1066	-0,6811	 0,0000	 0,6884	-0,4716	 0,8891	-0,1153	 1,0855	 0,6679	 0,3913	 0,7855	-0,1518	 1,0629	 1,2906	 0,1029	 1,8885	 0,3978	 1,8673	 0,1307	 0,9190
12.06.2026 10:29:10	-0,6307	 0,8198	 0,5256	 1,2505	 1,2132	 0,4416	-0,5424	 0,9322	-0,1475	-0,5760	-0,2402	 0,9183	 0,1190	-0,6774	 0,0000	 0,6876	-0,4825	 0,8855	-0,1022	 1,0884	 0,6665	 0,3905	 0,7855	-0,1453	 1,0650	 1,2249	 0,0956	 1,8695	 0,3854	 1,8476	 0,1234	 0,9176
12.06.2026 10:29:10	-0,6285	 0,8351	 0,5234	 1,2424	 1,2161	 0,4351	-0,5322	 0,9336	-0,1285	-0,5694	-0,2256	 0,9139	 0,1248	-0,6803	 0,0000	 0,6906	-0,4650	 0,8891	-0,1080	 1,0855	 0,6672	 0,3891	 0,7862	-0,1431	 1,0665	 1,2227	 0,1058	 1,8483	 0,3949	 1,8352	 0,1475	 0,8928
12.06.2026 10:29:10	-0,6365	 0,8446	 0,5197	 1,2446	 1,1972	 0,4227	-0,5796	 0,9285	-0,1256	-0,5708	-0,2263	 0,9110	 0,1190	-0,6723	 0,0000	 0,6898	-0,4504	 0,8869	-0,1029	 1,0921	 0,6679	 0,3913	 0,7884	-0,1394	 1,0672	 1,2578	 0,1343	 1,8432	 0,4139	 1,8396	 0,1467	 0,8694
12.06.2026 10:29:10	-0,6417	 0,8526	 0,5154	 1,2629	 1,2001	 0,4256	-0,5438	 0,9242	-0,1307	-0,5657	-0,2256	 0,9154	 0,1190	-0,6606	 0,0000	 0,6869	-0,4402	 0,8884	-0,0993	 1,0884	 0,6694	 0,3913	 0,7913	-0,1365	 1,0687	 1,2797	 0,1402	 1,8417	 0,4234	 1,8425	 0,1526	 0,8679
12.06.2026 10:29:10	-0,6103	 0,8628	 0,5139	 1,2811	 1,2337	 0,4343	-0,4971	 0,9220	-0,1358	-0,5526	-0,2080	 0,9278	 0,1453	-0,6738	 0,0000	 0,6906	-0,4380	 0,8986	-0,1161	 1,0775	 0,6694	 0,3942	 0,7957	-0,1329	 1,0723	 1,3089	 0,1533	 1,8184	 0,4584	 1,8169	 0,1810	 0,8621
12.06.2026 10:29:10	-0,6059	 0,8482	 0,5110	 1,2614	 1,2293	 0,4540	-0,5438	 0,9242	-0,1431	-0,5533	-0,2234	 0,9249	 0,1445	-0,6782	 0,0000	 0,6898	-0,4453	 0,8950	-0,1102	 1,0789	 0,6679	 0,3942	 0,7928	-0,1307	 1,0709	 1,3424	 0,1511	 1,7855	 0,4679	 1,8089	 0,1810	 0,8570
12.06.2026 10:29:10	-0,6132	 0,8482	 0,5146	 1,2636	 1,2256	 0,4511	-0,5270	 0,9227	-0,1489	-0,5548	-0,2241	 0,9220	 0,1270	-0,6752	 0,0000	 0,6876	-0,4256	 0,8935	-0,1066	 1,0775	 0,6665	 0,3920	 0,7913	-0,1329	 1,0702	 1,3198	 0,1423	 1,7958	 0,4679	 1,8220	 0,1883	 0,8577
12.06.2026 10:29:10	-0,6088	 0,8563	 0,5205	 1,2745	 1,2176	 0,4497	-0,5351	 0,9227	-0,1387	-0,5541	-0,2205	 0,9285	 0,1197	-0,6767	 0,0000	 0,6869	-0,4248	 0,8971	-0,1066	 1,0782	 0,6650	 0,3920	 0,7942	-0,1314	 1,0694	 1,2862	 0,1445	 1,7885	 0,4716	 1,8133	 0,1876	 0,8314
12.06.2026 10:29:10	-0,6022	 0,8417	 0,5110	 1,2658	 1,2161	 0,4562	-0,5402	 0,9249	-0,1387	-0,5548	-0,2153	 0,9220	 0,1431	-0,6687	 0,0000	 0,6847	-0,4329	 0,8928	-0,1080	 1,0775	 0,6643	 0,3891	 0,7898	-0,1329	 1,0665	 1,3081	 0,1664	 1,7819	 0,4613	 1,7965	 0,1905	 0,8241
12.06.2026 10:29:10	-0,5942	 0,8431	 0,5022	 1,2643	 1,2198	 0,4424	-0,5358	 0,9263	-0,1467	-0,5533	-0,2029	 0,9234	 0,1599	-0,6628	 0,0000	 0,6818	-0,4292	 0,8862	-0,1000	 1,0796	 0,6636	 0,3891	 0,7862	-0,1336	 1,0650	 1,2797	 0,1788	 1,8067	 0,4526	 1,7928	 0,1898	 0,8475
12.06.2026 10:29:10	-0,6052	 0,8526	 0,4876	 1,2483	 1,2074	 0,4453	-0,5168	 0,9249	-0,1263	-0,5533	-0,2161	 0,9220	 0,1467	-0,6628	 0,0000	 0,6818	-0,4343	 0,8884	-0,0971	 1,0789	 0,6614	 0,3883	 0,7855	-0,1329	 1,0621	 1,2337	 0,1730	 1,8206	 0,4270	 1,8111	 0,1818	 0,8745
12.06.2026 10:29:10	-0,6059	 0,8614	 0,4716	 1,2453	 1,2088	 0,4446	-0,5234	 0,9256	-0,1350	-0,5468	-0,2059	 0,9169	 0,1321	-0,6643	 0,0000	 0,6855	-0,4431	 0,8855	-0,1015	 1,0767	 0,6614	 0,3883	 0,7862	-0,1307	 1,0614	 1,2359	 0,1635	 1,8344	 0,4183	 1,8052	 0,1774	 0,8884
12.06.2026 10:29:10	-0,5942	 0,8665	 0,4854	 1,2505	 1,2125	 0,4475	-0,5365	 0,9212	-0,1438	-0,5482	-0,1927	 0,9271	 0,1175	-0,6614	 0,0000	 0,6803	-0,4497	 0,8862	-0,0847	 1,0804	 0,6643	 0,3891	 0,7884	-0,1241	 1,0614	 1,2578	 0,1460	 1,8432	 0,4263	 1,7906	 0,1730	 0,8716
12.06.2026 10:29:10	-0,5906	 0,8606	 0,5059	 1,2512	 1,2118	 0,4497	-0,5139	 0,9125	-0,1329	-0,5497	-0,1971	 0,9388	 0,1350	-0,6584	 0,0000	 0,6774	-0,4526	 0,8942	-0,0891	 1,0811	 0,6650	 0,3891	 0,7891	-0,1226	 1,0621	 1,2862	 0,1489	 1,8198	 0,4300	 1,7877	 0,1818	 0,8475
12.06.2026 10:29:10	-0,5862	 0,8570	 0,5212	 1,2570	 1,2140	 0,4475	-0,5197	 0,9117	-0,1409	-0,5446	-0,2007	 0,9234	 0,1475	-0,6541	 0,0000	 0,6782	-0,4657	 0,8884	-0,1029	 1,0760	 0,6621	 0,3869	 0,7855	-0,1263	 1,0577	 1,3169	 0,1504	 1,8104	 0,4285	 1,7841	 0,1781	 0,8541
12.06.2026 10:29:10	-0,5760	 0,8526	 0,5343	 1,2563	 1,2234	 0,4504	-0,5117	 0,9103	-0,1423	-0,5446	-0,2022	 0,9212	 0,1548	-0,6533	 0,0000	 0,6760	-0,4373	 0,8891	-0,0927	 1,0745	 0,6606	 0,3869	 0,7825	-0,1241	 1,0570	 1,3548	 0,1438	 1,8016	 0,4329	 1,7994	 0,1767	 0,8599
12.06.2026 10:29:10	-0,5760	 0,8497	 0,5373	 1,2475	 1,2183	 0,4497	-0,5139	 0,9147	-0,1350	-0,5424	-0,2015	 0,9278	 0,1591	-0,6599	 0,0000	 0,6752	-0,4051	 0,8884	-0,0912	 1,0716	 0,6599	 0,3862	 0,7833	-0,1234	 1,0577	 1,3322	 0,1489	 1,7914	 0,4453	 1,7833	 0,1752	 0,8541
12.06.2026 10:29:10	-0,5833	 0,8460	 0,5343	 1,2432	 1,2147	 0,4519	-0,5146	 0,9183	-0,1314	-0,5431	-0,2073	 0,9242	 0,1453	-0,6555	 0,0000	 0,6752	-0,4110	 0,8855	-0,0942	 1,0702	 0,6563	 0,3847	 0,7833	-0,1270	 1,0548	 1,2943	 0,1548	 1,7855	 0,4402	 1,7600	 0,1715	 0,8424
12.06.2026 10:29:10	-0,5818	 0,8482	 0,5292	 1,2505	 1,2176	 0,4504	-0,5117	 0,9074	-0,1358	-0,5424	-0,1978	 0,9307	 0,1496	-0,6563	 0,0000	 0,6745	-0,4227	 0,8928	-0,0912	 1,0680	 0,6577	 0,3847	 0,7840	-0,1248	 1,0548	 1,3140	 0,1613	 1,7709	 0,4387	 1,7395	 0,1818	 0,8329
12.06.2026 10:29:10	-0,5825	 0,8475	 0,5263	 1,2497	 1,2118	 0,4489	-0,5205	 0,9066	-0,1380	-0,5395	-0,1986	 0,9322	 0,1533	-0,6577	 0,0000	 0,6723	-0,4321	 0,8884	-0,0898	 1,0665	 0,6563	 0,3854	 0,7811	-0,1248	 1,0526	 1,2826	 0,1847	 1,7666	 0,4613	 1,7330	 0,1927	 0,8366
12.06.2026 10:29:10	-0,5803	 0,8402	 0,5190	 1,2402	 1,2118	 0,4489	-0,5161	 0,9088	-0,1358	-0,5395	-0,2015	 0,9234	 0,1511	-0,6526	 0,0000	 0,6709	-0,4205	 0,8833	-0,0898	 1,0658	 0,6541	 0,3832	 0,7789	-0,1285	 1,0504	 1,2227	 0,1905	 1,7571	 0,4555	 1,7454	 0,1898	 0,8358
12.06.2026 10:29:10	-0,5752	 0,8431	 0,5161	 1,2322	 1,1994	 0,4424	-0,5132	 0,9059	-0,1329	-0,5402	-0,1986	 0,9227	 0,1475	-0,6555	 0,0000	 0,6709	-0,4234	 0,8869	-0,0891	 1,0636	 0,6541	 0,3825	 0,7789	-0,1270	 1,0504	 1,2322	 0,1694	 1,7563	 0,4475	 1,7476	 0,1788	 0,8482
12.06.2026 10:29:10	-0,5767	 0,8402	 0,5139	 1,2278	 1,2023	 0,4504	-0,5059	 0,9074	-0,1307	-0,5402	-0,2059	 0,9227	 0,1387	-0,6519	 0,0000	 0,6701	-0,4336	 0,8840	-0,0898	 1,0607	 0,6519	 0,3810	 0,7752	-0,1285	 1,0468	 1,2570	 0,1723	 1,7512	 0,4694	 1,7505	 0,1840	 0,8468
12.06.2026 10:29:10	-0,5716	 0,8351	 0,5044	 1,2249	 1,2059	 0,4504	-0,5205	 0,9066	-0,1285	-0,5446	-0,2102	 0,9190	 0,1423	-0,6504	 0,0000	 0,6650	-0,4263	 0,8840	-0,0912	 1,0585	 0,6504	 0,3789	 0,7738	-0,1299	 1,0417	 1,2731	 0,1774	 1,7374	 0,4862	 1,7330	 0,2080	 0,8198
12.06.2026 10:29:10	-0,5687	 0,8300	 0,5073	 1,2227	 1,2176	 0,4475	-0,5219	 0,9059	-0,1336	-0,5475	-0,2146	 0,9169	 0,1336	-0,6533	 0,0000	 0,6657	-0,4161	 0,8782	-0,0978	 1,0563	 0,6511	 0,3796	 0,7738	-0,1299	 1,0380	 1,3067	 0,1540	 1,7366	 0,4876	 1,7082	 0,2117	 0,8212
12.06.2026 10:29:10	-0,5730	 0,8234	 0,5000	 1,2169	 1,2125	 0,4467	-0,5059	 0,9023	-0,1263	-0,5468	-0,2102	 0,9139	 0,1292	-0,6497	 0,0000	 0,6650	-0,4168	 0,8738	-0,0956	 1,0548	 0,6519	 0,3796	 0,7723	-0,1299	 1,0380	 1,3402	 0,1496	 1,7352	 0,4905	 1,7001	 0,1986	 0,8300
12.06.2026 10:29:10	-0,5723	 0,8249	 0,4935	 1,2052	 1,2001	 0,4416	-0,5015	 0,9008	-0,1248	-0,5468	-0,2007	 0,9132	 0,1226	-0,6511	 0,0000	 0,6621	-0,4205	 0,8701	-0,0942	 1,0548	 0,6511	 0,3781	 0,7701	-0,1292	 1,0380	 1,3242	 0,1672	 1,7410	 0,4993	 1,7089	 0,2029	 0,8460
12.06.2026 10:29:10	-0,5760	 0,8263	 0,4738	 1,1986	 1,2015	 0,4373	-0,5015	 0,8979	-0,1409	-0,5497	-0,2066	 0,9139	 0,1241	-0,6504	 0,0000	 0,6636	-0,4256	 0,8716	-0,0949	 1,0541	 0,6497	 0,3781	 0,7701	-0,1307	 1,0351	 1,2877	 0,1723	 1,7425	 0,5139	 1,7118	 0,2037	 0,8366
12.06.2026 10:29:10	-0,5796	 0,8293	 0,4745	 1,1972	 1,1942	 0,4307	-0,5146	 0,8928	-0,1438	-0,5468	-0,2146	 0,9117	 0,1365	-0,6490	 0,0000	 0,6628	-0,4256	 0,8760	-0,0949	 1,0526	 0,6475	 0,3774	 0,7709	-0,1329	 1,0329	 1,2964	 0,1788	 1,7476	 0,5343	 1,7074	 0,2336	 0,8241
12.06.2026 10:29:10	-0,5694	 0,8300	 0,4993	 1,2015	 1,2030	 0,4358	-0,5219	 0,8898	-0,1350	-0,5424	-0,1993	 0,9088	 0,1197	-0,6511	 0,0000	 0,6599	-0,4212	 0,8636	-0,0985	 1,0512	 0,6460	 0,3752	 0,7672	-0,1350	 1,0293	 1,2811	 0,1825	 1,7541	 0,5292	 1,7125	 0,2533	 0,8519
12.06.2026 10:29:10	-0,5730	 0,8263	 0,4832	 1,1979	 1,1862	 0,4314	-0,5154	 0,8898	-0,1394	-0,5460	-0,1949	 0,9066	 0,1394	-0,6475	 0,0000	 0,6584	-0,4343	 0,8570	-0,0985	 1,0504	 0,6446	 0,3723	 0,7599	-0,1380	 1,0249	 1,2373	 0,1942	 1,7425	 0,5270	 1,7030	 0,2489	 0,8519
12.06.2026 10:29:10	-0,5760	 0,8249	 0,4825	 1,1957	 1,1789	 0,4307	-0,5059	 0,8877	-0,1394	-0,5416	-0,2088	 0,9059	 0,1847	-0,6446	 0,0000	 0,6533	-0,4336	 0,8585	-0,1022	 1,0475	 0,6438	 0,3723	 0,7584	-0,1380	 1,0242	 1,2366	 0,1964	 1,7622	 0,4986	 1,7060	 0,2394	 0,8519
12.06.2026 10:29:10	-0,5723	 0,8307	 0,4913	 1,1957	 1,1884	 0,4256	-0,5161	 0,8877	-0,1307	-0,5416	-0,2022	 0,9081	 0,1628	-0,6468	 0,0000	 0,6526	-0,4161	 0,8628	-0,0956	 1,0475	 0,6453	 0,3745	 0,7621	-0,1343	 1,0256	 1,2585	 0,1861	 1,7629	 0,4789	 1,7082	 0,2139	 0,8241
12.06.2026 10:29:10	-0,5774	 0,8227	 0,4862	 1,1994	 1,1840	 0,4190	-0,5205	 0,8855	-0,1380	-0,5431	-0,2124	 0,9059	 0,0993	-0,6380	 0,0000	 0,6563	-0,4161	 0,8621	-0,0854	 1,0548	 0,6482	 0,3774	 0,7636	-0,1292	 1,0278	 1,2760	 0,1416	 1,7768	 0,4555	 1,7271	 0,1613	 0,8314
12.06.2026 10:29:10	-0,5635	 0,8132	 0,4884	 1,1994	 1,1884	 0,4256	-0,5073	 0,8825	-0,1365	-0,5358	-0,2080	 0,9052	 0,1409	-0,6409	 0,0000	 0,6541	-0,4168	 0,8636	-0,0883	 1,0519	 0,6490	 0,3789	 0,7650	-0,1256	 1,0285	 1,3001	 0,1110	 1,7848	 0,4234	 1,7527	 0,1219	 0,8701
12.06.2026 10:29:10	-0,5577	 0,8198	 0,4862	 1,1869	 1,1921	 0,4219	-0,4971	 0,8833	-0,1518	-0,5424	-0,1891	 0,9074	 0,1635	-0,6402	 0,0000	 0,6504	-0,4241	 0,8701	-0,0898	 1,0490	 0,6497	 0,3781	 0,7657	-0,1241	 1,0285	 1,3366	 0,1343	 1,7614	 0,4577	 1,7468	 0,1511	 0,8701
12.06.2026 10:29:10	-0,5679	 0,8329	 0,4789	 1,2008	 1,1921	 0,4205	-0,5073	 0,8789	-0,1358	-0,5343	-0,1905	 0,9125	 0,1496	-0,6417	 0,0000	 0,6533	-0,4124	 0,8672	-0,0905	 1,0468	 0,6490	 0,3803	 0,7679	-0,1226	 1,0307	 1,3176	 0,1540	 1,7731	 0,4752	 1,7520	 0,1788	 0,8621
12.06.2026 10:29:10	-0,5818	 0,8256	 0,4730	 1,1964	 1,1723	 0,4102	-0,5117	 0,8796	-0,1226	-0,5387	-0,1956	 0,9125	 0,1226	-0,6490	 0,0000	 0,6555	-0,4256	 0,8658	-0,0883	 1,0424	 0,6468	 0,3803	 0,7679	-0,1204	 1,0315	 1,2826	 0,1657	 1,7658	 0,4803	 1,7512	 0,1854	 0,8417
12.06.2026 10:29:10	-0,5913	 0,7986	 0,4475	 1,1680	 1,1650	 0,3971	-0,5146	 0,8723	-0,1358	-0,5533	-0,2132	 0,9037	 0,0774	-0,6468	 0,0000	 0,6541	-0,4467	 0,8563	-0,0876	 1,0453	 0,6468	 0,3789	 0,7636	-0,1183	 1,0293	 1,2972	 0,1642	 1,7520	 0,4920	 1,7381	 0,1861	 0,8358
12.06.2026 10:29:10	-0,5957	 0,7913	 0,4248	 1,1548	 1,1643	 0,3964	-0,5110	 0,8709	-0,1453	-0,5541	-0,2205	 0,8898	 0,1139	-0,6417	 0,0000	 0,6497	-0,4168	 0,8526	-0,0891	 1,0453	 0,6446	 0,3789	 0,7621	-0,1226	 1,0271	 1,2716	 0,1621	 1,7417	 0,4825	 1,7315	 0,1803	 0,8344
12.06.2026 10:29:10	-0,5811	 0,8103	 0,4467	 1,1577	 1,1592	 0,4095	-0,5657	 0,8767	-0,1409	-0,5482	-0,2102	 0,8928	 0,1416	-0,6322	 0,0000	 0,6497	-0,4066	 0,8592	-0,0803	 1,0417	 0,6438	 0,3796	 0,7657	-0,1219	 1,0271	 1,2191	 0,1613	 1,7439	 0,4796	 1,7388	 0,1664	 0,8380
12.06.2026 10:29:10	-0,5438	 0,8300	 0,4978	 1,1899	 1,1767	 0,4387	-0,5468	 0,8789	-0,1219	-0,5270	-0,1818	 0,9001	 0,1467	-0,6351	 0,0000	 0,6526	-0,4241	 0,8563	-0,0650	 1,0424	 0,6424	 0,3789	 0,7643	-0,1175	 1,0278	 1,2169	 0,1591	 1,7432	 0,4796	 1,7279	 0,1482	 0,8271
12.06.2026 10:29:10	-0,5555	 0,8176	 0,4942	 1,2023	 1,1643	 0,4467	-0,4555	 0,8840	-0,1263	-0,5300	-0,1942	 0,9001	 0,1146	-0,6227	 0,0000	 0,6482	-0,4533	 0,8592	-0,0679	 1,0468	 0,6395	 0,3745	 0,7577	-0,1175	 1,0227	 1,2256	 0,1562	 1,7301	 0,4767	 1,7155	 0,1453	 0,8081
12.06.2026 10:29:10	-0,5409	 0,8088	 0,4993	 1,2074	 1,1942	 0,4533	-0,5409	 0,8891	-0,1226	-0,5300	-0,2022	 0,9103	 0,1226	-0,6373	 0,0000	 0,6519	-0,4292	 0,8636	-0,1000	 1,0358	 0,6395	 0,3774	 0,7636	-0,1168	 1,0271	 1,2351	 0,1548	 1,7337	 0,4811	 1,7257	 0,1445	 0,8125
12.06.2026 10:29:10	-0,5380	 0,7862	 0,5073	 1,1964	 1,1884	 0,4380	-0,5694	 0,8825	-0,1234	-0,5395	-0,2000	 0,8942	 0,1701	-0,6373	 0,0000	 0,6482	-0,3956	 0,8541	-0,1037	 1,0285	 0,6387	 0,3752	 0,7614	-0,1212	 1,0242	 1,2599	 0,1606	 1,7322	 0,4876	 1,7169	 0,1518	 0,8205
12.06.2026 10:29:10	-0,5504	 0,7811	 0,4672	 1,1767	 1,1738	 0,4234	-0,5044	 0,8672	-0,1394	-0,5468	-0,2183	 0,8920	 0,1847	-0,6271	 0,0000	 0,6460	-0,3956	 0,8475	-0,0876	 1,0293	 0,6380	 0,3723	 0,7541	-0,1219	 1,0191	 1,2855	 0,1621	 1,7279	 0,5044	 1,7074	 0,1482	 0,8205
12.06.2026 10:29:10	-0,5599	 0,8074	 0,4453	 1,1869	 1,1563	 0,4314	-0,5008	 0,8760	-0,1394	-0,5365	-0,2153	 0,8891	 0,1956	-0,6329	 0,0000	 0,6438	-0,4000	 0,8446	-0,0766	 1,0329	 0,6380	 0,3708	 0,7511	-0,1226	 1,0176	 1,2548	 0,1657	 1,7242	 0,5095	 1,6972	 0,1402	 0,7957
12.06.2026 10:29:10	-0,5818	 0,8147	 0,4270	 1,1913	 1,1483	 0,4256	-0,4796	 0,8869	-0,1234	-0,5351	-0,2066	 0,8811	 0,1453	-0,6322	 0,0000	 0,6402	-0,4102	 0,8460	-0,0934	 1,0278	 0,6351	 0,3694	 0,7497	-0,1277	 1,0132	 1,2074	 0,1694	 1,7140	 0,5030	 1,6855	 0,1635	 0,7621
12.06.2026 10:29:10	-0,5679	 0,8103	 0,4767	 1,1891	 1,1694	 0,4402	-0,4672	 0,8782	-0,1226	-0,5285	-0,1971	 0,8833	 0,1212	-0,6365	 0,0000	 0,6438	-0,4022	 0,8409	-0,1110	 1,0169	 0,6329	 0,3708	 0,7519	-0,1270	 1,0147	 1,2154	 0,1613	 1,6965	 0,5022	 1,6928	 0,1621	 0,7614
12.06.2026 10:29:10	-0,5657	 0,7847	 0,5351	 1,1906	 1,1468	 0,4511	-0,4854	 0,8672	-0,1307	-0,5322	-0,2102	 0,8782	 0,1051	-0,6365	 0,0000	 0,6409	-0,4132	 0,8395	-0,0964	 1,0220	 0,6344	 0,3708	 0,7490	-0,1226	 1,0147	 1,1891	 0,1511	 1,6833	 0,4832	 1,7045	 0,1489	 0,7760
12.06.2026 10:29:10	-0,5453	 0,7628	 0,5548	 1,2205	 1,1767	 0,4548	-0,4789	 0,8679	-0,1380	-0,5292	-0,2153	 0,8913	 0,0927	-0,6387	 0,0000	 0,6387	-0,4161	 0,8424	-0,0971	 1,0198	 0,6336	 0,3708	 0,7497	-0,1212	 1,0154	 1,1249	 0,1248	 1,6936	 0,4511	 1,7133	 0,1380	 0,7928
12.06.2026 10:29:10	-0,5424	 0,7577	 0,5577	 1,2234	 1,1702	 0,4584	-0,4767	 0,8716	-0,1431	-0,5431	-0,2153	 0,8811	 0,1270	-0,6271	 0,0000	 0,6373	-0,4314	 0,8329	-0,0847	 1,0271	 0,6336	 0,3686	 0,7417	-0,1219	 1,0118	 1,1205	 0,1321	 1,6987	 0,4570	 1,7060	 0,1496	 0,7884
12.06.2026 10:29:10	-0,5533	 0,7657	 0,5497	 1,2015	 1,1556	 0,4511	-0,4759	 0,8701	-0,1672	-0,5504	-0,2234	 0,8636	 0,1796	-0,6219	 0,0000	 0,6395	-0,4526	 0,8278	-0,0927	 1,0234	 0,6292	 0,3657	 0,7344	-0,1256	 1,0023	 1,1439	 0,1562	 1,6906	 0,4818	 1,6775	 0,1606	 0,7636
12.06.2026 10:29:10	-0,5519	 0,7614	 0,5584	 1,2045	 1,1534	 0,4402	-0,4774	 0,8731	-0,1511	-0,5373	-0,2329	 0,8621	 0,1920	-0,6205	 0,0000	 0,6373	-0,4146	 0,8190	-0,1073	 1,0081	 0,6241	 0,3628	 0,7351	-0,1299	 0,9964	 1,1614	 0,1599	 1,6833	 0,4913	 1,6709	 0,1569	 0,7650
12.06.2026 10:29:10	-0,5577	 0,7526	 0,5468	 1,1899	 1,1300	 0,4446	-0,4738	 0,8716	-0,0985	-0,5519	-0,2387	 0,8599	 0,1124	-0,6241	 0,0000	 0,6322	-0,4081	 0,8139	-0,0927	 1,0139	 0,6256	 0,3599	 0,7293	-0,1256	 0,9942	 1,1848	 0,1891	 1,6892	 0,5044	 1,6687	 0,1803	 0,7803
12.06.2026 10:29:10	-0,5489	 0,7555	 0,4993	 1,1964	 1,1431	 0,4504	-0,4365	 0,8767	-0,0993	-0,5526	-0,2321	 0,8606	 0,1044	-0,6263	 0,0000	 0,6307	-0,4343	 0,8125	-0,0949	 1,0118	 0,6241	 0,3577	 0,7263	-0,1256	 0,9920	 1,2198	 0,2022	 1,6790	 0,4986	 1,6571	 0,1905	 0,7745
12.06.2026 10:29:10	-0,5504	 0,7460	 0,4986	 1,2198	 1,1504	 0,4482	-0,4694	 0,8869	-0,1000	-0,5453	-0,2307	 0,8548	 0,1183	-0,6205	 0,0000	 0,6314	-0,4300	 0,8052	-0,0993	 1,0081	 0,6198	 0,3562	 0,7241	-0,1307	 0,9884	 1,2008	 0,1803	 1,6709	 0,4818	 1,6717	 0,1869	 0,7665
12.06.2026 10:29:10	-0,5541	 0,7366	 0,5519	 1,1986	 1,1431	 0,4679	-0,4635	 0,8877	-0,0964	-0,5526	-0,2321	 0,8512	 0,1307	-0,6227	 0,0000	 0,6292	-0,4241	 0,8052	-0,0993	 1,0066	 0,6190	 0,3555	 0,7234	-0,1299	 0,9869	 1,1556	 0,1584	 1,6870	 0,4876	 1,6782	 0,1788	 0,7606
12.06.2026 10:29:10	-0,5475	 0,7329	 0,5898	 1,2183	 1,1468	 0,4789	-0,4650	 0,8825	-0,1029	-0,5497	-0,2329	 0,8555	 0,1423	-0,6219	 0,0000	 0,6241	-0,4227	 0,8059	-0,0978	 1,0059	 0,6183	 0,3562	 0,7256	-0,1292	 0,9891	 1,1694	 0,1336	 1,6936	 0,4825	 1,6819	 0,1628	 0,7796
12.06.2026 10:29:10	-0,5643	 0,7322	 0,5628	 1,2651	 1,1278	 0,4694	-0,4927	 0,8789	-0,1234	-0,5416	-0,2394	 0,8504	 0,1270	-0,6176	 0,0000	 0,6227	-0,4227	 0,8059	-0,0978	 1,0052	 0,6168	 0,3548	 0,7234	-0,1329	 0,9869	 1,1512	 0,1110	 1,6994	 0,4584	 1,6987	 0,1343	 0,8154
12.06.2026 10:29:10	-0,5789	 0,7373	 0,5562	 1,2658	 1,1264	 0,4665	-0,4424	 0,8774	-0,1234	-0,5416	-0,2409	 0,8490	 0,1409	-0,6146	 0,0000	 0,6212	-0,4241	 0,8044	-0,1000	 1,0023	 0,6168	 0,3540	 0,7198	-0,1329	 0,9847	 1,0986	 0,0942	 1,6738	 0,4416	 1,6928	 0,1226	 0,8037
12.06.2026 10:29:10	-0,5701	 0,7402	 0,5891	 1,2614	 1,1315	 0,4759	-0,4263	 0,8694	-0,1350	-0,5424	-0,2278	 0,8468	 0,1358	-0,6117	 0,0000	 0,6198	-0,4241	 0,8022	-0,0993	 1,0037	 0,6176	 0,3540	 0,7168	-0,1336	 0,9833	 1,0862	 0,0985	 1,6775	 0,4358	 1,6892	 0,1270	 0,8008
12.06.2026 10:29:10	-0,5599	 0,7409	 0,5614	 1,2402	 1,1307	 0,4847	-0,4694	 0,8818	-0,1343	-0,5453	-0,2394	 0,8460	 0,1299	-0,6095	 0,0000	 0,6190	-0,4227	 0,7993	-0,0956	 1,0023	 0,6176	 0,3519	 0,7154	-0,1350	 0,9789	 1,1001	 0,1139	 1,6717	 0,4489	 1,6804	 0,1263	 0,7811
12.06.2026 10:29:10	-0,5555	 0,7190	 0,5789	 1,2373	 1,1424	 0,4840	-0,4577	 0,8906	-0,0978	-0,5504	-0,2584	 0,8475	 0,1299	-0,6088	 0,0000	 0,6176	-0,4314	 0,7971	-0,1000	 1,0008	 0,6161	 0,3489	 0,7110	-0,1350	 0,9753	 1,1161	 0,1701	 1,6052	 0,5183	 1,6154	 0,1920	 0,6957
12.06.2026 10:29:10	-0,5468	 0,7044	 0,6198	 1,2687	 1,1264	 0,4862	-0,4051	 0,8760	-0,1146	-0,5519	-0,2584	 0,8380	 0,1314	-0,6059	 0,0000	 0,6161	-0,4394	 0,7949	-0,1029	 1,0001	 0,6176	 0,3504	 0,7103	-0,1350	 0,9760	 1,1468	 0,2051	 1,6008	 0,5336	 1,6030	 0,2278	 0,6752
12.06.2026 10:29:10	-0,5387	 0,7095	 0,6300	 1,2767	 1,1344	 0,4927	-0,4402	 0,8716	-0,1153	-0,5526	-0,2533	 0,8395	 0,1387	-0,6052	 0,0000	 0,6154	-0,4373	 0,7898	-0,0993	 0,9993	 0,6176	 0,3511	 0,7088	-0,1350	 0,9760	 1,1862	 0,1832	 1,6417	 0,5081	 1,6461	 0,2051	 0,7103
12.06.2026 10:29:10	-0,5431	 0,7044	 0,6402	 1,2643	 1,1307	 0,4978	-0,4402	 0,8687	-0,1153	-0,5555	-0,2497	 0,8417	 0,1453	-0,6081	 0,0000	 0,6139	-0,4504	 0,7913	-0,0978	 0,9972	 0,6146	 0,3497	 0,7059	-0,1358	 0,9738	 1,1672	 0,1854	 1,6614	 0,5219	 1,6359	 0,2007	 0,7154
12.06.2026 10:29:10	-0,5468	 0,7030	 0,6278	 1,2672	 1,1118	 0,4949	-0,4438	 0,8650	-0,1358	-0,5577	-0,2504	 0,8417	 0,1569	-0,6044	 0,0000	 0,6117	-0,4402	 0,7869	-0,0949	 0,9957	 0,6146	 0,3519	 0,7074	-0,1358	 0,9731	 1,1373	 0,1694	 1,6563	 0,5015	 1,6147	 0,1840	 0,7044
12.06.2026 10:29:10	-0,5489	 0,7052	 0,6110	 1,2818	 1,1366	 0,4964	-0,4504	 0,8643	-0,1270	-0,5468	-0,2482	 0,8402	 0,1292	-0,6030	 0,0000	 0,6125	-0,4197	 0,7803	-0,0993	 0,9935	 0,6110	 0,3504	 0,7059	-0,1387	 0,9723	 1,1526	 0,1416	 1,6592	 0,4913	 1,6191	 0,1905	 0,7271
12.06.2026 10:29:10	-0,5519	 0,6993	 0,6227	 1,2899	 1,1307	 0,4986	-0,4227	 0,8701	-0,1153	-0,5409	-0,2467	 0,8336	 0,1329	-0,6015	 0,0000	 0,6110	-0,4270	 0,7789	-0,1015	 0,9913	 0,6073	 0,3460	 0,7008	-0,1423	 0,9672	 1,1271	 0,1256	 1,6746	 0,4738	 1,6359	 0,1642	 0,7628
12.06.2026 10:29:10	-0,5548	 0,6913	 0,6490	 1,2943	 1,1154	 0,4935	-0,4321	 0,8701	-0,1139	-0,5460	-0,2504	 0,8329	 0,1482	-0,6059	 0,0000	 0,6088	-0,4300	 0,7752	-0,1015	 0,9884	 0,6073	 0,3446	 0,6979	-0,1438	 0,9621	 1,0731	 0,1102	 1,6695	 0,4489	 1,6468	 0,1489	 0,7723
12.06.2026 10:29:10	-0,5599	 0,6789	 0,6431	 1,2826	 1,1249	 0,4840	-0,4373	 0,8679	-0,1088	-0,5526	-0,2584	 0,8285	 0,1234	-0,6095	 0,0000	 0,6073	-0,4343	 0,7709	-0,1051	 0,9840	 0,6044	 0,3424	 0,6935	-0,1453	 0,9592	 1,0680	 0,1095	 1,6658	 0,4592	 1,6439	 0,1876	 0,7679
12.06.2026 10:29:10	-0,5701	 0,6650	 0,6146	 1,2789	 1,1125	 0,4789	-0,4321	 0,8723	-0,1102	-0,5577	-0,2694	 0,8220	 0,1416	-0,6030	 0,0000	 0,6052	-0,4475	 0,7628	-0,1066	 0,9811	 0,6008	 0,3387	 0,6862	-0,1467	 0,9534	 1,0818	 0,1292	 1,6505	 0,4716	 1,6366	 0,1832	 0,7387
12.06.2026 10:29:10	-0,5679	 0,6577	 0,6008	 1,2833	 1,1052	 0,4949	-0,4146	 0,8709	-0,1095	-0,5548	-0,2847	 0,8125	 0,1358	-0,6015	 0,0000	 0,6037	-0,4548	 0,7621	-0,1088	 0,9789	 0,6000	 0,3365	 0,6855	-0,1482	 0,9497	 1,0979	 0,1431	 1,6279	 0,4738	 1,6242	 0,1679	 0,7205
12.06.2026 10:29:10	-0,5548	 0,6563	 0,5825	 1,2724	 1,1212	 0,5037	-0,4197	 0,8687	-0,1153	-0,5628	-0,2898	 0,8336	 0,1197	-0,5986	 0,0000	 0,5993	-0,4424	 0,7592	-0,0956	 0,9840	 0,6022	 0,3373	 0,6818	-0,1394	 0,9504	 1,1344	 0,1372	 1,6322	 0,4599	 1,6315	 0,1686	 0,7220
12.06.2026 10:29:10	-0,5519	 0,6533	 0,6030	 1,2687	 1,1132	 0,5022	-0,4256	 0,8679	-0,1124	-0,5650	-0,2796	 0,8293	 0,1350	-0,5971	 0,0000	 0,5986	-0,4453	 0,7526	-0,0971	 0,9833	 0,6015	 0,3365	 0,6782	-0,1372	 0,9475	 1,1731	 0,1358	 1,6344	 0,4489	 1,6381	 0,1650	 0,7278
12.06.2026 10:29:10	-0,5468	 0,6650	 0,6709	 1,2811	 1,1030	 0,5103	-0,4241	 0,8701	-0,1066	-0,5526	-0,2679	 0,8030	 0,1423	-0,5986	 0,0000	 0,6000	-0,4548	 0,7592	-0,1139	 0,9753	 0,5971	 0,3343	 0,6774	-0,1475	 0,9439	 1,1534	 0,1402	 1,6300	 0,4584	 1,6227	 0,1694	 0,7198
12.06.2026 10:29:10	-0,5409	 0,6679	 0,7125	 1,2840	 1,1103	 0,5249	-0,4066	 0,8731	-0,1080	-0,5489	-0,2679	 0,8125	 0,1409	-0,5957	 0,0000	 0,5971	-0,4394	 0,7533	-0,1066	 0,9760	 0,5957	 0,3336	 0,6774	-0,1431	 0,9461	 1,1220	 0,1350	 1,6315	 0,4570	 1,6206	 0,1737	 0,7066
12.06.2026 10:29:10	-0,5424	 0,6541	 0,7015	 1,2731	 1,1140	 0,5212	-0,4066	 0,8716	-0,1102	-0,5548	-0,2810	 0,8103	 0,1292	-0,5949	 0,0000	 0,5927	-0,4394	 0,7402	-0,1037	 0,9738	 0,5942	 0,3307	 0,6760	-0,1423	 0,9431	 1,1337	 0,1358	 1,6235	 0,4431	 1,6133	 0,1708	 0,7066
12.06.2026 10:29:10	-0,5606	 0,6482	 0,6599	 1,2935	 1,0950	 0,5095	-0,4234	 0,8658	-0,1204	-0,5687	-0,2774	 0,8125	 0,1365	-0,5920	 0,0000	 0,5913	-0,4438	 0,7409	-0,1037	 0,9731	 0,5920	 0,3300	 0,6752	-0,1423	 0,9395	 1,1059	 0,1489	 1,6249	 0,4424	 1,6067	 0,1781	 0,7110
12.06.2026 10:29:10	-0,5635	 0,6431	 0,6650	 1,3067	 1,0913	 0,5059	-0,4000	 0,8650	-0,1022	-0,5635	-0,2847	 0,7979	 0,1358	-0,5927	 0,0000	 0,5942	-0,4548	 0,7468	-0,1095	 0,9701	 0,5898	 0,3292	 0,6745	-0,1475	 0,9373	 1,0453	 0,1431	 1,6074	 0,4489	 1,5906	 0,1854	 0,7008
12.06.2026 10:29:10	-0,5606	 0,6511	 0,6979	 1,3023	 1,0928	 0,5124	-0,3810	 0,8658	-0,1131	-0,5526	-0,2789	 0,7884	 0,1343	-0,5942	 0,0000	 0,5964	-0,5278	 0,7475	-0,1124	 0,9680	 0,5891	 0,3285	 0,6716	-0,1511	 0,9366	 1,0329	 0,1226	 1,5994	 0,4467	 1,5841	 0,1825	 0,6942
12.06.2026 10:29:10	-0,5694	 0,6504	 0,7008	 1,3059	 1,0942	 0,5176	-0,4241	 0,8643	-0,1350	-0,5606	-0,2730	 0,7986	 0,1489	-0,5884	 0,0000	 0,5920	-0,5146	 0,7453	-0,1080	 0,9694	 0,5913	 0,3292	 0,6716	-0,1460	 0,9388	 1,0410	 0,1226	 1,6220	 0,4285	 1,5928	 0,1635	 0,6935
12.06.2026 10:29:10	-0,5599	 0,6358	 0,6949	 1,2979	 1,0877	 0,5110	-0,4628	 0,8658	-0,1219	-0,5584	-0,3015	 0,7957	 0,1409	-0,5891	 0,0000	 0,5891	-0,4197	 0,7468	-0,1110	 0,9680	 0,5891	 0,3278	 0,6745	-0,1453	 0,9366	 1,0380	 0,1380	 1,5972	 0,4431	 1,5738	 0,1708	 0,6643
12.06.2026 10:29:10	-0,5533	 0,6271	 0,6876	 1,3052	 1,0862	 0,5176	-0,3927	 0,8672	-0,0934	-0,5511	-0,2869	 0,7986	 0,1489	-0,5891	 0,0000	 0,5906	-0,4102	 0,7482	-0,1037	 0,9687	 0,5898	 0,3278	 0,6782	-0,1402	 0,9373	 1,0497	 0,1526	 1,5935	 0,4584	 1,5811	 0,1913	 0,6782
12.06.2026 10:29:10	-0,5511	 0,6271	 0,6840	 1,3249	 1,0994	 0,5183	-0,3869	 0,8672	-0,0839	-0,5497	-0,2818	 0,8059	 0,1533	-0,5869	 0,0000	 0,5913	-0,4227	 0,7497	-0,0985	 0,9687	 0,5920	 0,3307	 0,6803	-0,1365	 0,9409	 1,0840	 0,1526	 1,6001	 0,4467	 1,5906	 0,1934	 0,7183
12.06.2026 10:29:10	-0,5541	 0,6219	 0,6767	 1,3110	 1,0818	 0,5117	-0,4015	 0,8621	-0,1015	-0,5555	-0,2883	 0,8132	 0,1307	-0,5884	 0,0000	 0,5913	-0,4424	 0,7453	-0,0934	 0,9672	 0,5898	 0,3300	 0,6789	-0,1329	 0,9402	 1,0621	 0,1453	 1,5965	 0,4460	 1,5884	 0,1832	 0,7256
12.06.2026 10:29:10	-0,5665	 0,6212	 0,6679	 1,2687	 1,0913	 0,5008	-0,4110	 0,8643	-0,0883	-0,5628	-0,2883	 0,8022	 0,1131	-0,5906	 0,0000	 0,5920	-0,4665	 0,7424	-0,1000	 0,9628	 0,5876	 0,3278	 0,6745	-0,1387	 0,9351	 1,0256	 0,1380	 1,6067	 0,4402	 1,5965	 0,1518	 0,7198
12.06.2026 10:29:10	-0,5818	 0,6263	 0,6606	 1,2578	 1,0884	 0,4920	-0,4307	 0,8658	-0,1037	-0,5614	-0,2854	 0,7760	 0,1329	-0,5891	 0,0000	 0,5913	-0,4570	 0,7380	-0,1080	 0,9570	 0,5833	 0,3248	 0,6694	-0,1475	 0,9285	 1,0541	 0,1175	 1,6001	 0,4227	 1,5775	 0,1183	 0,7088
12.06.2026 10:29:10	-0,5760	 0,6263	 0,6650	 1,2767	 1,0731	 0,4957	-0,3781	 0,8621	-0,0847	-0,5482	-0,2789	 0,7782	 0,1584	-0,5862	 0,0000	 0,5913	-0,4394	 0,7366	-0,0993	 0,9577	 0,5803	 0,3234	 0,6701	-0,1467	 0,9278	 1,0526	 0,0964	 1,6067	 0,3789	 1,5716	 0,0905	 0,7168
12.06.2026 10:29:10	-0,5796	 0,6292	 0,6745	 1,2753	 1,0643	 0,4898	-0,3913	 0,8577	-0,0766	-0,5519	-0,2767	 0,7869	 0,0854	-0,5708	 0,0000	 0,5884	-0,4387	 0,7263	-0,0847	 0,9687	 0,5789	 0,3219	 0,6650	-0,1453	 0,9234	 1,0315	 0,0891	 1,6198	 0,3504	 1,5724	 0,0723	 0,7161
12.06.2026 10:29:10	-0,5789	 0,6278	 0,6146	 1,2629	 1,0592	 0,4942	-0,3730	 0,8679	-0,0854	-0,5643	-0,2752	 0,7855	 0,0956	-0,5811	 0,0000	 0,5862	-0,4351	 0,7234	-0,0978	 0,9599	 0,5760	 0,3197	 0,6628	-0,1453	 0,9198	 1,0767	 0,0891	 1,6140	 0,3584	 1,5534	 0,0526	 0,7154
12.06.2026 10:29:10	-0,5577	 0,6322	 0,5949	 1,2629	 1,0884	 0,5000	-0,4168	 0,8636	-0,0730	-0,5526	-0,2767	 0,8001	 0,1803	-0,5971	 0,0000	 0,5898	-0,4365	 0,7387	-0,1219	 0,9395	 0,5752	 0,3227	 0,6694	-0,1453	 0,9249	 1,1658	 0,0949	 1,5921	 0,3665	 1,5446	 0,0533	 0,7117
12.06.2026 10:29:10	-0,5489	 0,6322	 0,6227	 1,2417	 1,0972	 0,5030	-0,4446	 0,8460	-0,1314	-0,5577	-0,2694	 0,8066	 0,1343	-0,5869	 0,0000	 0,5891	-0,4343	 0,7409	-0,1066	 0,9475	 0,5774	 0,3248	 0,6709	-0,1394	 0,9271	 1,2599	 0,1007	 1,5943	 0,3716	 1,5556	 0,0620	 0,7132
12.06.2026 10:29:10	-0,5292	 0,6219	 0,6548	 1,2578	 1,0775	 0,5146	-0,3978	 0,8599	-0,1270	-0,5584	-0,2752	 0,8037	 0,1241	-0,5833	 0,0000	 0,5862	-0,4197	 0,7336	-0,0971	 0,9526	 0,5796	 0,3234	 0,6694	-0,1380	 0,9249	 1,3833	 0,0839	 1,6008	 0,3613	 1,5643	 0,0496	 0,7351
12.06.2026 10:29:10	-0,5270	 0,6168	 0,7081	 1,2694	 1,0840	 0,5270	-0,4248	 0,8570	-0,1153	-0,5504	-0,2810	 0,8022	 0,1511	-0,5789	 0,0000	 0,5847	-0,4321	 0,7263	-0,1000	 0,9512	 0,5796	 0,3234	 0,6650	-0,1394	 0,9227	 1,5213	 0,0606	 1,6125	 0,3599	 1,5716	 0,0474	 0,7453
12.06.2026 10:29:10	-0,5409	 0,6103	 0,6424	 1,2329	 1,0855	 0,5030	-0,4139	 0,8446	-0,1117	-0,5592	-0,2869	 0,8015	 0,1438	-0,5789	 0,0000	 0,5840	-0,4460	 0,7212	-0,0978	 0,9512	 0,5767	 0,3212	 0,6592	-0,1394	 0,9198	 1,5892	 0,0504	 1,6235	 0,3723	 1,5746	 0,0431	 0,7475
12.06.2026 10:29:10	-0,5555	 0,6139	 0,5409	 1,2067	 1,0629	 0,4752	-0,3533	 0,8497	-0,0803	-0,5606	-0,2876	 0,7986	 0,1270	-0,5840	 0,0000	 0,5811	-0,4256	 0,7176	-0,1022	 0,9446	 0,5738	 0,3190	 0,6563	-0,1431	 0,9154	 1,6300	 0,0562	 1,6154	 0,3818	 1,5702	 0,0489	 0,7446
12.06.2026 10:29:10	-0,5562	 0,6088	 0,5336	 1,1935	 1,0723	 0,4884	-0,3650	 0,8650	-0,1110	-0,5657	-0,2869	 0,7964	 0,1124	-0,5818	 0,0000	 0,5818	-0,4300	 0,7132	-0,1037	 0,9439	 0,5716	 0,3190	 0,6548	-0,1438	 0,9132	 1,7009	 0,0518	 1,6176	 0,3803	 1,5760	 0,0577	 0,7504
12.06.2026 10:29:10	-0,5438	 0,6037	 0,6278	 1,2256	 1,0753	 0,4978	-0,4219	 0,8475	-0,1270	-0,5679	-0,2883	 0,8037	 0,1329	-0,5745	 0,0000	 0,5818	-0,4394	 0,7168	-0,0949	 0,9490	 0,5767	 0,3234	 0,6592	-0,1380	 0,9190	 1,7169	 0,0533	 1,6198	 0,3825	 1,5775	 0,0708	 0,7387
12.06.2026 10:29:10	-0,5395	 0,6103	 0,7088	 1,2621	 1,0745	 0,5059	-0,4227	 0,8227	-0,1168	-0,5592	-0,2956	 0,8088	 0,1256	-0,5767	 0,0000	 0,5840	-0,4190	 0,7256	-0,0898	 0,9519	 0,5811	 0,3292	 0,6650	-0,1329	 0,9256	 1,6644	 0,0467	 1,6103	 0,3686	 1,5724	 0,0701	 0,7307
12.06.2026 10:29:10	-0,5358	 0,5971	 0,6971	 1,2563	 1,0753	 0,5066	-0,4102	 0,8256	-0,1212	-0,5599	-0,2935	 0,8001	 0,1336	-0,5789	 0,0000	 0,5833	-0,4358	 0,7234	-0,0971	 0,9482	 0,5774	 0,3256	 0,6577	-0,1365	 0,9198	 1,6425	 0,0387	 1,6176	 0,3577	 1,5680	 0,0672	 0,7490
12.06.2026 10:29:10	-0,5460	 0,5854	 0,6709	 1,2366	 1,0534	 0,4993	-0,4059	 0,8241	-0,1277	-0,5643	-0,2986	 0,7957	 0,1438	-0,5738	 0,0000	 0,5774	-0,4394	 0,7220	-0,0942	 0,9497	 0,5781	 0,3234	 0,6563	-0,1365	 0,9176	 1,6074	 0,0380	 1,6344	 0,3562	 1,5563	 0,0577	 0,7446
12.06.2026 10:29:10	-0,5482	 0,5920	 0,6504	 1,2234	 1,0585	 0,4971	-0,4154	 0,8227	-0,1314	-0,5687	-0,2935	 0,7986	 0,1314	-0,5738	 0,0000	 0,5745	-0,4300	 0,7168	-0,0898	 0,9482	 0,5767	 0,3234	 0,6570	-0,1358	 0,9154	 1,5432	 0,0058	 1,6257	 0,3263	 1,5417	 0,0190	 0,7402
12.06.2026 10:29:10	-0,5387	 0,6066	 0,6322	 1,2037	 1,0672	 0,4935	-0,4073	 0,8241	-0,1256	-0,5687	-0,2810	 0,7891	 0,1438	-0,5767	 0,0000	 0,5738	-0,4409	 0,7154	-0,0920	 0,9409	 0,5752	 0,3205	 0,6533	-0,1402	 0,9103	 1,5184	-0,0073	 1,6227	 0,3175	 1,5424	 0,0219	 0,7344
12.06.2026 10:29:10	-0,5409	 0,6044	 0,6110	 1,1862	 1,0599	 0,4927	-0,4219	 0,8256	-0,1277	-0,5621	-0,2854	 0,7862	 0,1423	-0,5745	 0,0000	 0,5738	-0,4540	 0,7176	-0,0985	 0,9424	 0,5760	 0,3197	 0,6533	-0,1380	 0,9096	 1,4782	 0,0007	 1,6359	 0,3285	 1,5490	 0,0336	 0,7373
12.06.2026 10:29:10	-0,5387	 0,6117	 0,6052	 1,1950	 1,0504	 0,4818	-0,4117	 0,8256	-0,1153	-0,5541	-0,2686	 0,7869	 0,1168	-0,5752	 0,0000	 0,5738	-0,4796	 0,7132	-0,1037	 0,9417	 0,5738	 0,3197	 0,6504	-0,1394	 0,9059	 1,3709	 0,0124	 1,6257	 0,3380	 1,5614	 0,0460	 0,7271
12.06.2026 10:29:10	-0,5504	 0,6198	 0,6073	 1,1913	 1,0410	 0,4752	-0,3883	 0,8241	-0,1204	-0,5541	-0,2723	 0,7738	 0,1161	-0,5716	 0,0000	 0,5738	-0,4570	 0,7117	-0,1015	 0,9373	 0,5723	 0,3161	 0,6475	-0,1431	 0,9023	 1,2432	 0,0197	 1,6133	 0,3402	 1,5724	 0,0599	 0,7125
12.06.2026 10:29:10	-0,5621	 0,6132	 0,5898	 1,1796	 1,0548	 0,4759	-0,4066	 0,8220	-0,1314	-0,5592	-0,2781	 0,7709	 0,1241	-0,5701	 0,0000	 0,5708	-0,4124	 0,7147	-0,0971	 0,9358	 0,5701	 0,3139	 0,6460	-0,1438	 0,9001	 1,1468	 0,0321	 1,5928	 0,3387	 1,5570	 0,0737	 0,7300
12.06.2026 10:29:10	-0,5431	 0,6176	 0,5738	 1,1665	 1,0577	 0,4730	-0,4015	 0,8263	-0,1066	-0,5548	-0,2759	 0,7789	 0,0993	-0,5789	 0,0000	 0,5701	-0,4051	 0,7154	-0,0978	 0,9336	 0,5687	 0,3161	 0,6475	-0,1445	 0,9023	 1,0731	 0,0416	 1,5789	 0,3511	 1,5570	 0,0912	 0,7263
12.06.2026 10:29:10	-0,5358	 0,6146	 0,5614	 1,1541	 1,0402	 0,4745	-0,3971	 0,8212	-0,1066	-0,5657	-0,2759	 0,7730	 0,1110	-0,5708	 0,0000	 0,5665	-0,4263	 0,7110	-0,1044	 0,9307	 0,5665	 0,3132	 0,6424	-0,1475	 0,8971	 1,0285	 0,0431	 1,5972	 0,3635	 1,5731	 0,1022	 0,7307
12.06.2026 10:29:10	-0,5285	 0,6154	 0,5307	 1,1461	 1,0541	 0,4665	-0,4219	 0,8139	-0,1329	-0,5628	-0,2708	 0,7716	 0,1307	-0,5708	 0,0000	 0,5657	-0,4190	 0,7125	-0,1037	 0,9300	 0,5665	 0,3124	 0,6424	-0,1475	 0,8964	 1,0307	 0,0496	 1,6089	 0,3774	 1,5782	 0,1080	 0,7373
12.06.2026 10:29:10	-0,5161	 0,6132	 0,5329	 1,1278	 1,0563	 0,4701	-0,4146	 0,8132	-0,1336	-0,5599	-0,2774	 0,7730	 0,1234	-0,5767	 0,0000	 0,5672	-0,4373	 0,7125	-0,1051	 0,9271	 0,5657	 0,3132	 0,6431	-0,1467	 0,8964	 1,0687	 0,0460	 1,6147	 0,3789	 1,5811	 0,0898	 0,7220
12.06.2026 10:29:10	-0,5329	 0,6044	 0,5599	 1,1271	 1,0483	 0,4767	-0,3971	 0,8081	-0,1241	-0,5687	-0,2752	 0,7650	 0,1204	-0,5635	 0,0000	 0,5650	-0,4672	 0,7044	-0,0985	 0,9300	 0,5628	 0,3073	 0,6351	-0,1482	 0,8877	 1,1008	 0,0504	 1,6052	 0,3723	 1,5687	 0,0825	 0,7198
12.06.2026 10:29:10	-0,5329	 0,6081	 0,5745	 1,1256	 1,0490	 0,4723	-0,4081	 0,8066	-0,1234	-0,5650	-0,2730	 0,7701	 0,1234	-0,5628	 0,0000	 0,5643	-0,4212	 0,7074	-0,0905	 0,9351	 0,5672	 0,3095	 0,6387	-0,1423	 0,8877	 1,1373	 0,0453	 1,5760	 0,3686	 1,5446	 0,0898	 0,7234
12.06.2026 10:29:10	-0,5205	 0,6081	 0,5730	 1,1249	 1,0358	 0,4723	-0,4037	 0,8074	-0,1197	-0,5621	-0,2716	 0,7789	 0,1358	-0,5687	 0,0000	 0,5650	-0,4037	 0,7154	-0,0978	 0,9271	 0,5657	 0,3117	 0,6424	-0,1409	 0,8891	 1,1804	 0,0204	 1,5519	 0,3504	 1,5257	 0,0715	 0,7263
12.06.2026 10:29:10	-0,5241	 0,6044	 0,5672	 1,1278	 1,0490	 0,4708	-0,4022	 0,8074	-0,1248	-0,5504	-0,2643	 0,7738	 0,1409	-0,5643	 0,0000	 0,5657	-0,4110	 0,7095	-0,1022	 0,9227	 0,5614	 0,3102	 0,6387	-0,1453	 0,8855	 1,1526	 0,0175	 1,5432	 0,3431	 1,5096	 0,0460	 0,7183
12.06.2026 10:29:10	-0,5256	 0,6081	 0,5614	 1,1234	 1,0607	 0,4643	-0,4241	 0,8030	-0,1234	-0,5541	-0,2628	 0,7701	 0,1270	-0,5657	 0,0000	 0,5665	-0,4095	 0,7110	-0,1007	 0,9249	 0,5621	 0,3102	 0,6387	-0,1460	 0,8840	 1,1118	 0,0226	 1,5184	 0,3482	 1,4855	 0,0496	 0,6811
12.06.2026 10:29:10	-0,5256	 0,6059	 0,5416	 1,1191	 1,0358	 0,4592	-0,4088	 0,7986	-0,1124	-0,5635	-0,2635	 0,7672	 0,1314	-0,5716	 0,0000	 0,5665	-0,4154	 0,7117	-0,1022	 0,9220	 0,5599	 0,3095	 0,6358	-0,1482	 0,8811	 1,1285	 0,0285	 1,5081	 0,3416	 1,4789	 0,0569	 0,6957
12.06.2026 10:29:10	-0,5249	 0,5986	 0,5278	 1,1052	 1,0431	 0,4592	-0,4095	 0,8022	-0,1175	-0,5570	-0,2737	 0,7657	 0,1307	-0,5708	 0,0000	 0,5650	-0,4117	 0,7052	-0,1037	 0,9198	 0,5584	 0,3088	 0,6344	-0,1511	 0,8774	 1,1067	 0,0526	 1,5052	 0,3460	 1,4731	 0,0555	 0,7125
12.06.2026 10:29:10	-0,5234	 0,6081	 0,5300	 1,1045	 1,0424	 0,4562	-0,4095	 0,7993	-0,1248	-0,5577	-0,2759	 0,7665	 0,1387	-0,5672	 0,0000	 0,5635	-0,4219	 0,7008	-0,1022	 0,9198	 0,5562	 0,3073	 0,6322	-0,1526	 0,8731	 1,0504	 0,0372	 1,4957	 0,3424	 1,4607	 0,0511	 0,7037
12.06.2026 10:29:10	-0,5292	 0,6073	 0,5190	 1,0877	 1,0205	 0,4540	-0,3964	 0,7971	-0,1263	-0,5614	-0,2686	 0,7606	 0,1343	-0,5628	 0,0000	 0,5628	-0,4329	 0,6971	-0,1051	 0,9176	 0,5555	 0,3051	 0,6271	-0,1533	 0,8687	 1,0431	 0,0394	 1,4819	 0,3526	 1,4410	 0,0584	 0,6745
12.06.2026 10:29:10	-0,5314	 0,5920	 0,5000	 1,0767	 1,0410	 0,4548	-0,4008	 0,7971	-0,1248	-0,5643	-0,2774	 0,7636	 0,1256	-0,5599	 0,0000	 0,5599	-0,4197	 0,7008	-0,1022	 0,9190	 0,5577	 0,3051	 0,6263	-0,1511	 0,8694	 1,0570	-0,0051	 1,5424	 0,3015	 1,4921	 0,0168	 0,6928
12.06.2026 10:29:10	-0,5205	 0,5898	 0,5000	 1,0891	 1,0388	 0,4555	-0,4190	 0,7913	-0,1270	-0,5672	-0,2825	 0,7679	 0,1248	-0,5635	 0,0000	 0,5599	-0,4161	 0,7044	-0,1007	 0,9190	 0,5584	 0,3088	 0,6300	-0,1467	 0,8738	 1,0672	-0,0606	 1,6089	 0,2533	 1,5658	-0,0234	 0,7497
12.06.2026 10:29:10	-0,5051	 0,5979	 0,4730	 1,0796	 1,0358	 0,4511	-0,4285	 0,7986	-0,1329	-0,5665	-0,2694	 0,7709	 0,1204	-0,5650	 0,0000	 0,5606	-0,4314	 0,7052	-0,1000	 0,9205	 0,5592	 0,3095	 0,6278	-0,1416	 0,8760	 1,0964	-0,0248	 1,5519	 0,3029	 1,5140	 0,0015	 0,7263
12.06.2026 10:29:10	-0,5110	 0,6015	 0,4679	 1,0607	 1,0439	 0,4453	-0,4022	 0,7964	-0,1168	-0,5599	-0,2635	 0,7643	 0,1402	-0,5650	 0,0000	 0,5614	-0,4285	 0,7052	-0,1015	 0,9176	 0,5577	 0,3088	 0,6271	-0,1409	 0,8752	 1,1380	-0,0058	 1,5388	 0,3263	 1,4935	 0,0248	 0,7263
12.06.2026 10:29:10	-0,5234	 0,6000	 0,4876	 1,0650	 1,0293	 0,4460	-0,4190	 0,7833	-0,1212	-0,5614	-0,2628	 0,7577	 0,1482	-0,5643	 0,0000	 0,5577	-0,4117	 0,7066	-0,1058	 0,9147	 0,5570	 0,3110	 0,6314	-0,1431	 0,8774	 1,1198	 0,0066	 1,5359	 0,3424	 1,4921	 0,0591	 0,7088
12.06.2026 10:29:10	-0,5256	 0,6052	 0,4891	 1,0723	 1,0264	 0,4511	-0,4175	 0,7803	-0,1423	-0,5635	-0,2555	 0,7621	 0,1380	-0,5628	 0,0000	 0,5533	-0,4175	 0,7052	-0,0978	 0,9169	 0,5570	 0,3139	 0,6314	-0,1387	 0,8833	 1,0789	-0,0051	 1,5227	 0,3300	 1,4782	 0,0387	 0,6811
12.06.2026 10:29:10	-0,5154	 0,5979	 0,5022	 1,0680	 1,0344	 0,4438	-0,4146	 0,7789	-0,1365	-0,5584	-0,2643	 0,7701	 0,0927	-0,5672	 0,0000	 0,5570	-0,4292	 0,7030	-0,0978	 0,9139	 0,5584	 0,3146	 0,6329	-0,1387	 0,8840	 1,0979	-0,0139	 1,5410	 0,3321	 1,5023	 0,0131	 0,7037
12.06.2026 10:29:10	-0,5000	 0,5876	 0,5081	 1,0621	 1,0366	 0,4373	-0,4190	 0,7833	-0,1358	-0,5606	-0,2679	 0,7577	 0,0949	-0,5650	 0,0000	 0,5548	-0,4175	 0,7001	-0,1015	 0,9125	 0,5562	 0,3124	 0,6336	-0,1423	 0,8811	 1,0869	 0,0007	 1,5366	 0,3533	 1,4943	 0,0343	 0,7044
12.06.2026 10:29:10	-0,5132	 0,5891	 0,4978	 1,0592	 1,0110	 0,4373	-0,4314	 0,7825	-0,1358	-0,5592	-0,2664	 0,7526	 0,0964	-0,5541	 0,0000	 0,5511	-0,4124	 0,6913	-0,0883	 0,9249	 0,5570	 0,3124	 0,6314	-0,1358	 0,8825	 1,0300	 0,0190	 1,5067	 0,3497	 1,4724	 0,0562	 0,6789
12.06.2026 10:29:10	-0,5234	 0,5964	 0,4774	 1,0585	 1,0191	 0,4373	-0,4241	 0,7782	-0,1365	-0,5614	-0,2621	 0,7636	 0,1051	-0,5497	 0,0000	 0,5511	-0,4161	 0,6993	-0,0891	 0,9220	 0,5584	 0,3132	 0,6314	-0,1314	 0,8862	 1,0220	 0,0387	 1,4643	 0,3606	 1,4388	 0,0854	 0,6665
12.06.2026 10:29:10	-0,5146	 0,6066	 0,4840	 1,0585	 1,0439	 0,4373	-0,4059	 0,7818	-0,1343	-0,5606	-0,2570	 0,7563	 0,1606	-0,5541	 0,0000	 0,5533	-0,4037	 0,7037	-0,0971	 0,9066	 0,5562	 0,3161	 0,6358	-0,1321	 0,8869	 1,0475	 0,0453	 1,4512	 0,3737	 1,4191	 0,0810	 0,6504
12.06.2026 10:29:10	-0,4964	 0,6161	 0,4832	 1,0607	 1,0220	 0,4431	-0,4409	 0,7760	-0,1307	-0,5533	-0,2584	 0,7548	 0,1402	-0,5548	 0,0000	 0,5555	-0,4022	 0,7037	-0,0993	 0,9110	 0,5592	 0,3168	 0,6373	-0,1292	 0,8862	 1,0658	 0,0431	 1,4512	 0,3774	 1,4220	 0,0781	 0,6380
12.06.2026 10:29:10	-0,4891	 0,6263	 0,4657	 1,0475	 1,0395	 0,4526	-0,4015	 0,7782	-0,1314	-0,5453	-0,2482	 0,7628	 0,1270	-0,5665	 0,0000	 0,5584	-0,4029	 0,7088	-0,0964	 0,9096	 0,5592	 0,3168	 0,6358	-0,1277	 0,8847	 1,0994	 0,0547	 1,4454	 0,3650	 1,4154	 0,0927	 0,6468
12.06.2026 10:29:10	-0,4818	 0,6263	 0,4716	 1,0322	 1,0650	 0,4482	-0,3781	 0,7796	-0,1263	-0,5460	-0,2394	 0,7709	 0,1234	-0,5635	 0,0000	 0,5577	-0,4219	 0,7125	-0,0891	 0,9096	 0,5592	 0,3168	 0,6365	-0,1263	 0,8825	 1,1468	 0,0854	 1,4300	 0,3796	 1,3957	 0,1190	 0,6365
12.06.2026 10:29:10	-0,4730	 0,6139	 0,4738	 1,0198	 1,0431	 0,4453	-0,4051	 0,7782	-0,1263	-0,5504	-0,2402	 0,7701	 0,1248	-0,5541	 0,0000	 0,5541	-0,4248	 0,7176	-0,0876	 0,9147	 0,5599	 0,3154	 0,6365	-0,1263	 0,8847	 1,1315	 0,1044	 1,4008	 0,4132	 1,3731	 0,1496	 0,6037
12.06.2026 10:29:10	-0,4832	 0,6110	 0,4884	 1,0337	 1,0351	 0,4380	-0,4154	 0,7752	-0,1219	-0,5497	-0,2489	 0,7687	 0,1197	-0,5548	 0,0000	 0,5533	-0,3927	 0,7066	-0,0788	 0,9154	 0,5577	 0,3146	 0,6336	-0,1263	 0,8796	 1,0964	 0,1146	 1,3884	 0,4307	 1,3665	 0,1526	 0,5869
12.06.2026 10:29:10	-0,4789	 0,6146	 0,4920	 1,0512	 1,0410	 0,4387	-0,4190	 0,7701	-0,1321	-0,5460	-0,2467	 0,7701	 0,1212	-0,5555	 0,0000	 0,5526	-0,3891	 0,7074	-0,0905	 0,9023	 0,5541	 0,3132	 0,6329	-0,1285	 0,8782	 1,1125	 0,0905	 1,4030	 0,4175	 1,3760	 0,1416	 0,5986
12.06.2026 10:29:10	-0,4738	 0,6088	 0,4628	 1,0388	 1,0402	 0,4387	-0,4102	 0,7687	-0,1402	-0,5424	-0,2394	 0,7701	 0,1358	-0,5555	 0,0000	 0,5526	-0,4000	 0,7088	-0,0934	 0,9001	 0,5533	 0,3132	 0,6322	-0,1292	 0,8782	 1,0964	 0,0599	 1,4147	 0,3891	 1,3943	 0,1314	 0,6322
12.06.2026 10:29:10	-0,4840	 0,6037	 0,4628	 1,0307	 1,0285	 0,4336	-0,4161	 0,7665	-0,1387	-0,5497	-0,2482	 0,7650	 0,1336	-0,5497	 0,0000	 0,5511	-0,4175	 0,6993	-0,0854	 0,9074	 0,5526	 0,3110	 0,6263	-0,1277	 0,8745	 1,0504	 0,0577	 1,4220	 0,3942	 1,4096	 0,1394	 0,6614
12.06.2026 10:29:10	-0,4840	 0,6030	 0,4723	 1,0278	 1,0293	 0,4307	-0,4183	 0,7657	-0,1372	-0,5475	-0,2445	 0,7650	 0,1292	-0,5526	 0,0000	 0,5497	-0,4000	 0,7001	-0,0854	 0,9059	 0,5541	 0,3117	 0,6263	-0,1263	 0,8738	 1,0453	 0,0825	 1,3870	 0,4161	 1,3884	 0,1569	 0,6256
12.06.2026 10:29:10	-0,4869	 0,5964	 0,4657	 1,0198	 1,0278	 0,4343	-0,4051	 0,7621	-0,1343	-0,5511	-0,2475	 0,7643	 0,1190	-0,5526	 0,0000	 0,5468	-0,3905	 0,7008	-0,0847	 0,9044	 0,5541	 0,3124	 0,6263	-0,1256	 0,8709	 1,0497	 0,0927	 1,3629	 0,4124	 1,3702	 0,1365	 0,6008
12.06.2026 10:29:10	-0,4905	 0,5898	 0,4599	 1,0161	 1,0198	 0,4278	-0,4256	 0,7628	-0,1329	-0,5548	-0,2599	 0,7577	 0,1234	-0,5482	 0,0000	 0,5453	-0,4059	 0,7059	-0,0847	 0,9015	 0,5526	 0,3095	 0,6241	-0,1270	 0,8687	 1,0577	 0,1416	 1,3198	 0,4745	 1,3162	 0,1810	 0,5533
12.06.2026 10:29:10	-0,4854	 0,5825	 0,4548	 1,0139	 1,0249	 0,4205	-0,4256	 0,7628	-0,1299	-0,5519	-0,2613	 0,7592	 0,1256	-0,5497	 0,0000	 0,5453	-0,4029	 0,7001	-0,0905	 0,8993	 0,5533	 0,3095	 0,6205	-0,1277	 0,8650	 1,0906	 0,2175	 1,2344	 0,5548	 1,2534	 0,2635	 0,4869
12.06.2026 10:29:10	-0,4935	 0,5752	 0,4475	 0,9964	 1,0066	 0,4292	-0,4081	 0,7657	-0,1423	-0,5592	-0,2664	 0,7541	 0,1226	-0,5475	 0,0000	 0,5438	-0,4124	 0,6891	-0,0964	 0,8950	 0,5489	 0,3051	 0,6117	-0,1307	 0,8585	 1,1242	 0,2175	 1,2220	 0,5570	 1,2556	 0,2737	 0,4927
12.06.2026 10:29:10	-0,4949	 0,5767	 0,4256	 1,0008	 1,0212	 0,4197	-0,4015	 0,7628	-0,1329	-0,5519	-0,2613	 0,7511	 0,1248	-0,5504	 0,0000	 0,5446	-0,4139	 0,6920	-0,0949	 0,8942	 0,5489	 0,3073	 0,6132	-0,1307	 0,8592	 1,1001	 0,2132	 1,2293	 0,5402	 1,2548	 0,2613	 0,5015
12.06.2026 10:29:10	-0,5088	 0,5789	 0,4029	 1,0030	 1,0147	 0,4154	-0,4212	 0,7614	-0,1460	-0,5482	-0,2621	 0,7519	 0,1409	-0,5519	 0,0000	 0,5453	-0,3986	 0,6891	-0,0985	 0,8928	 0,5504	 0,3088	 0,6154	-0,1292	 0,8585	 1,0731	 0,1934	 1,2278	 0,5044	 1,2592	 0,2248	 0,4978
12.06.2026 10:29:10	-0,5051	 0,5891	 0,4117	 0,9855	 1,0001	 0,4059	-0,4154	 0,7636	-0,1628	-0,5635	-0,2548	 0,7482	 0,1350	-0,5497	 0,0000	 0,5446	-0,4000	 0,6920	-0,0942	 0,8920	 0,5497	 0,3073	 0,6146	-0,1277	 0,8599	 1,1074	 0,1599	 1,2446	 0,4789	 1,2731	 0,1993	 0,5197
12.06.2026 10:29:10	-0,4891	 0,5993	 0,4219	 0,9855	 1,0052	 0,4059	-0,4051	 0,7614	-0,1234	-0,5562	-0,2467	 0,7490	 0,1117	-0,5475	 0,0000	 0,5431	-0,4015	 0,6979	-0,0810	 0,8950	 0,5504	 0,3095	 0,6168	-0,1248	 0,8636	 1,0884	 0,1475	 1,2512	 0,4482	 1,2855	 0,1730	 0,5453
12.06.2026 10:29:10	-0,4949	 0,5986	 0,3986	 0,9942	 0,9950	 0,4081	-0,4409	 0,7577	-0,1248	-0,5519	-0,2482	 0,7497	 0,0905	-0,5424	 0,0000	 0,5431	-0,3993	 0,6928	-0,0664	 0,8993	 0,5504	 0,3095	 0,6168	-0,1204	 0,8636	 1,0256	 0,1467	 1,2497	 0,4446	 1,2826	 0,1650	 0,5387
12.06.2026 10:29:10	-0,4854	 0,5979	 0,3883	 0,9935	 1,0161	 0,4066	-0,3898	 0,7599	-0,1183	-0,5497	-0,2504	 0,7490	 0,1124	-0,5460	 0,0000	 0,5431	-0,4073	 0,6898	-0,0927	 0,8877	 0,5468	 0,3066	 0,6125	-0,1241	 0,8599	 1,0285	 0,1562	 1,2446	 0,4635	 1,2862	 0,1759	 0,5336
12.06.2026 10:29:10	-0,4774	 0,6000	 0,4343	 0,9811	 1,0132	 0,4161	-0,4679	 0,7650	-0,1336	-0,5416	-0,2591	 0,7482	 0,1416	-0,5453	 0,0000	 0,5438	-0,4146	 0,6884	-0,1015	 0,8847	 0,5453	 0,3066	 0,6132	-0,1248	 0,8592	 1,0650	 0,2263	 1,1804	 0,5314	 1,2344	 0,2314	 0,4606
12.06.2026 10:29:10	-0,4759	 0,6037	 0,4329	 0,9782	 1,0015	 0,4073	-0,4548	 0,7592	-0,1117	-0,5438	-0,2358	 0,7497	 0,1183	-0,5453	 0,0000	 0,5431	-0,4161	 0,6847	-0,0854	 0,8877	 0,5453	 0,3066	 0,6117	-0,1219	 0,8592	 1,0818	 0,2533	 1,1541	 0,5672	 1,1862	 0,2526	 0,4168
12.06.2026 10:29:10	-0,4796	 0,5935	 0,3898	 0,9650	 0,9906	 0,4059	-0,3694	 0,7643	-0,0708	-0,5482	-0,2445	 0,7417	 0,1153	-0,5460	 0,0000	 0,5438	-0,4205	 0,6774	-0,0934	 0,8825	 0,5409	 0,3037	 0,6066	-0,1256	 0,8526	 1,0899	 0,2051	 1,2008	 0,5124	 1,2125	 0,1949	 0,4672
12.06.2026 10:29:10	-0,4759	 0,5811	 0,4088	 0,9665	 1,0132	 0,4161	-0,4110	 0,7657	-0,1416	-0,5482	-0,2555	 0,7446	 0,1270	-0,5431	 0,0000	 0,5424	-0,4321	 0,6811	-0,0876	 0,8862	 0,5424	 0,3059	 0,6125	-0,1204	 0,8585	 1,1315	 0,1905	 1,2198	 0,4986	 1,2322	 0,1796	 0,4920
12.06.2026 10:29:10	-0,4767	 0,5760	 0,4314	 0,9665	 1,0212	 0,4095	-0,4336	 0,7482	-0,1277	-0,5387	-0,2453	 0,7475	 0,1197	-0,5431	 0,0000	 0,5424	-0,3898	 0,6898	-0,0854	 0,8855	 0,5438	 0,3088	 0,6190	-0,1175	 0,8658	 1,1337	 0,1708	 1,2388	 0,4738	 1,2629	 0,1555	 0,5110
12.06.2026 10:29:10	-0,4854	 0,5796	 0,4380	 0,9789	 0,9920	 0,4095	-0,4044	 0,7417	-0,1197	-0,5380	-0,2548	 0,7614	 0,1139	-0,5409	 0,0000	 0,5409	-0,3657	 0,6964	-0,0825	 0,8862	 0,5446	 0,3102	 0,6241	-0,1168	 0,8687	 1,1212	 0,1445	 1,2672	 0,4526	 1,2899	 0,1350	 0,5197
12.06.2026 10:29:10	-0,4789	 0,5913	 0,4489	 0,9972	 1,0037	 0,4146	-0,4197	 0,7475	-0,1292	-0,5402	-0,2489	 0,7665	 0,1190	-0,5416	 0,0000	 0,5395	-0,4008	 0,7015	-0,0796	 0,8840	 0,5438	 0,3088	 0,6263	-0,1131	 0,8709	 1,1307	 0,1336	 1,2760	 0,4446	 1,3140	 0,1336	 0,5314
12.06.2026 10:29:10	-0,4716	 0,5869	 0,4256	 0,9482	 1,0125	 0,4059	-0,4577	 0,7584	-0,1153	-0,5482	-0,2372	 0,7417	 0,1387	-0,5387	 0,0000	 0,5358	-0,3993	 0,6891	-0,0891	 0,8760	 0,5380	 0,3029	 0,6176	-0,1226	 0,8643	 1,0840	 0,1226	 1,2921	 0,4329	 1,3329	 0,1350	 0,5475
12.06.2026 10:29:10	-0,4613	 0,5898	 0,3920	 0,9358	 1,0139	 0,4139	-0,3818	 0,7577	-0,1350	-0,5438	-0,2292	 0,7519	 0,1380	-0,5336	 0,0000	 0,5343	-0,3832	 0,6884	-0,0876	 0,8745	 0,5358	 0,3015	 0,6117	-0,1241	 0,8628	 1,0366	 0,1088	 1,2913	 0,4373	 1,3191	 0,1475	 0,5431
12.06.2026 10:29:10	-0,4497	 0,5993	 0,4073	 0,9745	 1,0205	 0,4132	-0,4095	 0,7460	-0,1285	-0,5270	-0,2314	 0,7621	 0,1285	-0,5373	 0,0000	 0,5387	-0,3708	 0,6942	-0,0847	 0,8767	 0,5402	 0,3059	 0,6190	-0,1161	 0,8687	 1,0716	 0,1175	 1,2833	 0,4431	 1,3227	 0,1453	 0,5519
12.06.2026 10:29:10	-0,4548	 0,6052	 0,4212	 1,0001	 0,9986	 0,4219	-0,4088	 0,7475	-0,1277	-0,5278	-0,2234	 0,7592	 0,1489	-0,5307	 0,0000	 0,5358	-0,3723	 0,6957	-0,0825	 0,8782	 0,5395	 0,3044	 0,6190	-0,1131	 0,8672	 1,1096	 0,1372	 1,2826	 0,4548	 1,3220	 0,1496	 0,5475
12.06.2026 10:29:10	-0,4504	 0,6154	 0,4321	 1,0125	 1,0074	 0,4219	-0,3935	 0,7460	-0,1292	-0,5241	-0,2197	 0,7621	 0,1467	-0,5270	 0,0000	 0,5365	-0,3730	 0,7022	-0,0774	 0,8811	 0,5409	 0,3066	 0,6205	-0,1102	 0,8687	 1,0658	 0,1387	 1,2738	 0,4467	 1,3016	 0,1540	 0,5307
12.06.2026 10:29:10	-0,4431	 0,6125	 0,4431	 1,0110	 1,0285	 0,4234	-0,4000	 0,7453	-0,1241	-0,5176	-0,2183	 0,7606	 0,1044	-0,5336	 0,0000	 0,5380	-0,3679	 0,7044	-0,0825	 0,8782	 0,5409	 0,3081	 0,6219	-0,1110	 0,8694	 1,0731	 0,1321	 1,2745	 0,4446	 1,3023	 0,1402	 0,5409
12.06.2026 10:29:10	-0,4497	 0,5913	 0,4307	 0,9899	 0,9913	 0,4278	-0,3876	 0,7490	-0,1161	-0,5292	-0,2270	 0,7563	 0,1058	-0,5212	 0,0000	 0,5336	-0,3767	 0,7044	-0,0752	 0,8804	 0,5387	 0,3044	 0,6161	-0,1117	 0,8650	 1,1614	 0,1416	 1,2928	 0,4343	 1,3030	 0,1321	 0,5555
12.06.2026 10:29:10	-0,4511	 0,5847	 0,3956	 0,9680	 0,9942	 0,4015	-0,4008	 0,7475	-0,1226	-0,5263	-0,2372	 0,7541	 0,1153	-0,5176	 0,0000	 0,5314	-0,3796	 0,6979	-0,0708	 0,8833	 0,5395	 0,3037	 0,6154	-0,1117	 0,8650	 1,1468	 0,1270	 1,3103	 0,4256	 1,3037	 0,1219	 0,5562
12.06.2026 10:29:10	-0,4453	 0,6037	 0,3467	 0,9716	 1,0242	 0,4095	-0,3920	 0,7504	-0,1190	-0,5190	-0,2248	 0,7650	 0,1226	-0,5307	 0,0000	 0,5351	-0,3774	 0,6979	-0,0832	 0,8709	 0,5351	 0,3037	 0,6161	-0,1153	 0,8628	 1,0935	 0,1270	 1,2950	 0,4321	 1,2782	 0,1365	 0,5358
12.06.2026 10:29:10	-0,4482	 0,5964	 0,3438	 0,9614	 1,0081	 0,4037	-0,3869	 0,7519	-0,1153	-0,5300	-0,2351	 0,7497	 0,1358	-0,5329	 0,0000	 0,5365	-0,3767	 0,6928	-0,0818	 0,8679	 0,5322	 0,3029	 0,6125	-0,1197	 0,8563	 1,1147	 0,1460	 1,2731	 0,4175	 1,2599	 0,1540	 0,5358
12.06.2026 10:29:10	-0,4424	 0,5942	 0,3599	 0,9242	 1,0169	 0,3993	-0,4000	 0,7497	-0,1088	-0,5278	-0,2270	 0,7482	 0,1080	-0,5343	 0,0000	 0,5336	-0,3796	 0,6891	-0,0752	 0,8679	 0,5314	 0,3029	 0,6117	-0,1190	 0,8541	 1,1154	 0,1518	 1,2629	 0,4409	 1,2548	 0,1737	 0,5497
12.06.2026 10:29:10	-0,4504	 0,5964	 0,3745	 0,9307	 0,9869	 0,4066	-0,4000	 0,7431	-0,1153	-0,5285	-0,2234	 0,7490	 0,1248	-0,5285	 0,0000	 0,5307	-0,3913	 0,6906	-0,0810	 0,8672	 0,5300	 0,3000	 0,6081	-0,1190	 0,8526	 1,0468	 0,1372	 1,2709	 0,4321	 1,2380	 0,1847	 0,5570
12.06.2026 10:29:10	-0,4665	 0,6037	 0,4248	 0,9774	 0,9869	 0,4044	-0,3949	 0,7351	-0,1423	-0,5212	-0,2278	 0,7409	 0,1358	-0,5256	 0,0000	 0,5285	-0,3759	 0,6920	-0,0876	 0,8701	 0,5329	 0,3015	 0,6103	-0,1168	 0,8512	 1,0096	 0,1175	 1,2775	 0,4205	 1,2344	 0,1679	 0,5526
12.06.2026 10:29:10	-0,4635	 0,6103	 0,4599	 0,9935	 1,0015	 0,4081	-0,4146	 0,7314	-0,1256	-0,5212	-0,2212	 0,7453	 0,1336	-0,5285	 0,0000	 0,5292	-0,3796	 0,6928	-0,0854	 0,8687	 0,5351	 0,3037	 0,6095	-0,1124	 0,8512	 1,0789	 0,1277	 1,2680	 0,4387	 1,2249	 0,1686	 0,5351
12.06.2026 10:29:10	-0,4562	 0,5891	 0,4584	 0,9899	 0,9804	 0,4029	-0,4044	 0,7278	-0,1394	-0,5263	-0,2314	 0,7402	 0,1358	-0,5263	 0,0000	 0,5285	-0,3986	 0,6869	-0,0839	 0,8679	 0,5343	 0,3015	 0,6030	-0,1110	 0,8497	 1,1300	 0,1431	 1,2629	 0,4373	 1,2147	 0,1650	 0,5322
12.06.2026 10:29:10	-0,4460	 0,5876	 0,4343	 0,9753	 1,0066	 0,3993	-0,4175	 0,7314	-0,1445	-0,5241	-0,2299	 0,7446	 0,1124	-0,5285	 0,0000	 0,5263	-0,3810	 0,6913	-0,0847	 0,8665	 0,5351	 0,3022	 0,6066	-0,1080	 0,8512	 1,1300	 0,1453	 1,2512	 0,4387	 1,2140	 0,1642	 0,5402
12.06.2026 10:29:10	-0,4475	 0,5898	 0,4037	 0,9519	 0,9979	 0,3927	-0,4095	 0,7300	-0,1212	-0,5249	-0,2183	 0,7358	 0,1088	-0,5227	 0,0000	 0,5249	-0,3752	 0,6862	-0,0847	 0,8665	 0,5358	 0,3029	 0,6052	-0,1088	 0,8504	 1,1154	 0,1365	 1,2607	 0,4380	 1,2315	 0,1891	 0,5599
12.06.2026 10:29:10	-0,4467	 0,5876	 0,4000	 0,9475	 0,9942	 0,3956	-0,4044	 0,7300	-0,1314	-0,5227	-0,2234	 0,7358	 0,1263	-0,5227	 0,0000	 0,5256	-0,3781	 0,6774	-0,0839	 0,8665	 0,5358	 0,3037	 0,6022	-0,1080	 0,8512	 1,0789	 0,1263	 1,2716	 0,4380	 1,2410	 0,1869	 0,5453
12.06.2026 10:29:10	-0,4504	 0,5818	 0,3927	 0,9293	 0,9869	 0,3913	-0,4124	 0,7285	-0,1292	-0,5351	-0,2321	 0,7366	 0,1321	-0,5234	 0,0000	 0,5205	-0,3825	 0,6738	-0,0803	 0,8687	 0,5358	 0,3037	 0,5993	-0,1066	 0,8490	 1,1052	 0,1219	 1,2643	 0,4321	 1,2286	 0,1803	 0,5154
12.06.2026 10:29:10	-0,4548	 0,5796	 0,3869	 0,9117	 0,9782	 0,3847	-0,4175	 0,7241	-0,1263	-0,5322	-0,2256	 0,7300	 0,1117	-0,5241	 0,0000	 0,5205	-0,3825	 0,6694	-0,0818	 0,8643	 0,5351	 0,3037	 0,6008	-0,1080	 0,8475	 1,1388	 0,1365	 1,2578	 0,4482	 1,2198	 0,1993	 0,5212
12.06.2026 10:29:10	-0,4555	 0,5796	 0,3621	 0,9212	 0,9818	 0,3840	-0,4424	 0,7285	-0,1015	-0,5249	-0,2365	 0,7373	 0,1183	-0,5292	 0,0000	 0,5241	-0,3723	 0,6694	-0,0818	 0,8577	 0,5336	 0,3059	 0,6037	-0,1058	 0,8497	 1,1417	 0,1190	 1,2687	 0,4570	 1,2249	 0,2037	 0,5307
12.06.2026 10:29:10	-0,4562	 0,5774	 0,3519	 0,9300	 0,9826	 0,3876	-0,3956	 0,7227	-0,1270	-0,5278	-0,2424	 0,7322	 0,1007	-0,5256	 0,0000	 0,5205	-0,3672	 0,6694	-0,0774	 0,8628	 0,5351	 0,3066	 0,6015	-0,1037	 0,8490	 1,0899	 0,1037	 1,2745	 0,4533	 1,2329	 0,2059	 0,5329
12.06.2026 10:29:10	-0,4489	 0,5789	 0,3869	 0,9409	 0,9811	 0,3905	-0,4015	 0,7147	-0,1431	-0,5234	-0,2329	 0,7249	 0,0934	-0,5234	 0,0000	 0,5197	-0,3752	 0,6760	-0,0664	 0,8679	 0,5373	 0,3081	 0,6052	-0,0985	 0,8526	 1,0161	 0,1073	 1,2745	 0,4409	 1,2453	 0,1964	 0,5482
12.06.2026 10:29:10	-0,4416	 0,5752	 0,3971	 0,9380	 0,9840	 0,3854	-0,4081	 0,7147	-0,1299	-0,5227	-0,2285	 0,7380	 0,1066	-0,5227	 0,0000	 0,5219	-0,3883	 0,6796	-0,0737	 0,8672	 0,5365	 0,3095	 0,6081	-0,0934	 0,8555	 1,0154	 0,1058	 1,2767	 0,4241	 1,2439	 0,1803	 0,5358
12.06.2026 10:29:10	-0,4475	 0,5774	 0,3854	 0,9285	 0,9862	 0,3883	-0,3964	 0,7205	-0,1256	-0,5234	-0,2219	 0,7380	 0,1350	-0,5249	 0,0000	 0,5212	-0,3723	 0,6774	-0,0847	 0,8606	 0,5336	 0,3088	 0,6073	-0,0956	 0,8541	 1,0519	 0,1088	 1,2621	 0,4183	 1,2351	 0,1781	 0,5314
12.06.2026 10:29:10	-0,4540	 0,5730	 0,3613	 0,9366	 0,9760	 0,3883	-0,4227	 0,7161	-0,1080	-0,5234	-0,2241	 0,7409	 0,1387	-0,5197	 0,0000	 0,5227	-0,3708	 0,6774	-0,0737	 0,8628	 0,5358	 0,3102	 0,6059	-0,0898	 0,8533	 1,1278	 0,1117	 1,2651	 0,4059	 1,2344	 0,1796	 0,5482
12.06.2026 10:29:10	-0,4424	 0,5760	 0,3555	 0,9380	 0,9833	 0,3825	-0,3986	 0,7205	-0,1226	-0,5190	-0,2197	 0,7417	 0,1095	-0,5190	 0,0000	 0,5241	-0,3701	 0,6803	-0,0781	 0,8614	 0,5358	 0,3102	 0,6073	-0,0891	 0,8519	 1,1833	 0,1219	 1,2526	 0,4095	 1,2220	 0,1854	 0,5351
12.06.2026 10:29:10	-0,4373	 0,5847	 0,3796	 0,9227	 0,9716	 0,3876	-0,3862	 0,7212	-0,1248	-0,5095	-0,2124	 0,7256	 0,1226	-0,5176	 0,0000	 0,5219	-0,3467	 0,6752	-0,0788	 0,8577	 0,5307	 0,3066	 0,6052	-0,0978	 0,8446	 1,1665	 0,1095	 1,2556	 0,3971	 1,2052	 0,1745	 0,5365
12.06.2026 10:29:10	-0,4365	 0,5840	 0,3686	 0,8957	 0,9782	 0,3898	-0,3986	 0,7168	-0,1204	-0,5124	-0,2212	 0,7322	 0,1277	-0,5146	 0,0000	 0,5190	-0,3548	 0,6745	-0,0781	 0,8563	 0,5285	 0,3037	 0,6008	-0,0993	 0,8402	 1,1782	 0,1051	 1,2672	 0,3774	 1,1972	 0,1679	 0,5358
12.06.2026 10:29:10	-0,4343	 0,5796	 0,3555	 0,8928	 0,9884	 0,3832	-0,4015	 0,7190	-0,1372	-0,5263	-0,2278	 0,7358	 0,1190	-0,5132	 0,0000	 0,5168	-0,3628	 0,6796	-0,0788	 0,8548	 0,5285	 0,3029	 0,6015	-0,1000	 0,8402	 1,2147	 0,1022	 1,2483	 0,3832	 1,1891	 0,1701	 0,5358
12.06.2026 10:29:10	-0,4424	 0,5789	 0,3796	 0,9183	 0,9672	 0,3883	-0,4015	 0,7103	-0,1409	-0,5190	-0,2212	 0,7285	 0,1256	-0,5124	 0,0000	 0,5154	-0,3679	 0,6767	-0,0745	 0,8533	 0,5270	 0,3022	 0,5993	-0,1015	 0,8380	 1,0103	 0,1131	 1,2388	 0,3935	 1,1811	 0,1708	 0,5336
12.06.2026 10:29:10	-0,4446	 0,5803	 0,3869	 0,9285	 0,9716	 0,3862	-0,3978	 0,7074	-0,1321	-0,5110	-0,2146	 0,7366	 0,1336	-0,5146	 0,0000	 0,5176	-0,3643	 0,6752	-0,0701	 0,8533	 0,5256	 0,3037	 0,6022	-0,0985	 0,8417	 0,9417	 0,1394	 1,2205	 0,4051	 1,1672	 0,1891	 0,5095
12.06.2026 10:29:10	-0,4416	 0,5760	 0,3862	 0,9212	 0,9789	 0,3818	-0,3949	 0,7037	-0,1336	-0,5154	-0,2124	 0,7395	 0,1161	-0,5088	 0,0000	 0,5161	-0,3599	 0,6789	-0,0715	 0,8555	 0,5285	 0,3059	 0,6044	-0,0978	 0,8439	 1,0410	 0,1299	 1,2067	 0,3964	 1,1439	 0,1986	 0,4942
12.06.2026 10:29:10	-0,4336	 0,5738	 0,3905	 0,9205	 0,9774	 0,3862	-0,3898	 0,7037	-0,1321	-0,5124	-0,2117	 0,7395	 0,1197	-0,5117	 0,0000	 0,5154	-0,3628	 0,6818	-0,0730	 0,8541	 0,5270	 0,3044	 0,6044	-0,0985	 0,8409	 1,0300	 0,1204	 1,2052	 0,3854	 1,1461	 0,1971	 0,4745
12.06.2026 10:29:10	-0,4227	 0,5730	 0,3818	 0,9088	 0,9789	 0,3971	-0,3898	 0,7081	-0,1314	-0,5066	-0,2153	 0,7300	 0,1292	-0,5103	 0,0000	 0,5176	-0,3628	 0,6811	-0,0715	 0,8512	 0,5263	 0,3029	 0,6037	-0,1000	 0,8395	 1,0468	 0,1095	 1,1994	 0,3876	 1,1570	 0,1628	 0,4759
12.06.2026 10:29:10	-0,4132	 0,5745	 0,3752	 0,9125	 0,9826	 0,4044	-0,3869	 0,7081	-0,1307	-0,5051	-0,2234	 0,7366	 0,1307	-0,5044	 0,0000	 0,5154	-0,3643	 0,6760	-0,0664	 0,8541	 0,5278	 0,3044	 0,6015	-0,0971	 0,8387	 1,1833	 0,0810	 1,2110	 0,3716	 1,1658	 0,1423	 0,5037
12.06.2026 10:29:10	-0,4219	 0,5767	 0,3694	 0,9242	 0,9614	 0,3862	-0,3956	 0,7044	-0,1343	-0,5110	-0,2256	 0,7373	 0,1416	-0,5015	 0,0000	 0,5095	-0,3650	 0,6767	-0,0642	 0,8555	 0,5285	 0,3037	 0,6030	-0,0942	 0,8395	 1,2344	 0,0650	 1,2096	 0,3570	 1,1607	 0,1518	 0,5212
12.06.2026 10:29:10	-0,4475	 0,5840	 0,3307	 0,9132	 0,9439	 0,3643	-0,4051	 0,7030	-0,1314	-0,5124	-0,2088	 0,7278	 0,1197	-0,5022	 0,0000	 0,5095	-0,3592	 0,6774	-0,0730	 0,8519	 0,5278	 0,3044	 0,6022	-0,0985	 0,8387	 1,0636	 0,0547	 1,2256	 0,3416	 1,1636	 0,1307	 0,5270
12.06.2026 10:29:10	-0,4628	 0,5738	 0,3248	 0,8906	 0,9395	 0,3599	-0,3825	 0,7001	-0,1343	-0,5197	-0,2153	 0,7344	 0,1263	-0,5000	 0,0000	 0,5095	-0,3657	 0,6643	-0,0672	 0,8526	 0,5263	 0,3029	 0,5964	-0,0993	 0,8351	 1,0767	 0,0540	 1,2388	 0,3424	 1,1753	 0,1321	 0,5292
12.06.2026 10:29:10	-0,4533	 0,5592	 0,3205	 0,8672	 0,9388	 0,3679	-0,3905	 0,7001	-0,1292	-0,5256	-0,2278	 0,7147	 0,1204	-0,5051	 0,0000	 0,5095	-0,3752	 0,6687	-0,0715	 0,8475	 0,5241	 0,3015	 0,5964	-0,1029	 0,8314	 1,1483	 0,0445	 1,2300	 0,3460	 1,1862	 0,1409	 0,5482
12.06.2026 10:29:10	-0,4321	 0,5628	 0,3307	 0,8782	 0,9738	 0,3737	-0,3956	 0,7059	-0,1190	-0,5183	-0,2197	 0,7198	 0,1139	-0,5110	 0,0000	 0,5117	-0,3650	 0,6730	-0,0766	 0,8431	 0,5219	 0,3037	 0,5979	-0,1044	 0,8300	 1,1315	 0,0387	 1,2446	 0,3438	 1,2037	 0,1307	 0,5701
12.06.2026 10:29:10	-0,4278	 0,5621	 0,3708	 0,8877	 0,9804	 0,3803	-0,3832	 0,6986	-0,1307	-0,5154	-0,2226	 0,7234	 0,1299	-0,5051	 0,0000	 0,5110	-0,3584	 0,6577	-0,0708	 0,8439	 0,5212	 0,3008	 0,5935	-0,1051	 0,8271	 1,0855	 0,0577	 1,2388	 0,3694	 1,2074	 0,1453	 0,5891
12.06.2026 10:29:10	-0,4110	 0,5752	 0,3978	 0,9074	 0,9891	 0,3935	-0,3913	 0,6935	-0,1423	-0,5073	-0,2073	 0,7300	 0,1168	-0,5044	 0,0000	 0,5095	-0,3519	 0,6679	-0,0672	 0,8453	 0,5227	 0,3022	 0,5964	-0,1007	 0,8293	 1,1140	 0,0350	 1,2432	 0,3737	 1,2059	 0,1445	 0,5971
12.06.2026 10:29:10	-0,4073	 0,5796	 0,3862	 0,9220	 0,9855	 0,3971	-0,3993	 0,6971	-0,1248	-0,5037	-0,2066	 0,7366	 0,1226	-0,5008	 0,0000	 0,5081	-0,3548	 0,6694	-0,0642	 0,8460	 0,5212	 0,3015	 0,5964	-0,0964	 0,8293	 1,2125	 0,0212	 1,2432	 0,3453	 1,1869	 0,1234	 0,5665
12.06.2026 10:29:10	-0,4110	 0,5833	 0,3540	 0,9161	 0,9731	 0,3913	-0,3862	 0,6913	-0,1445	-0,5073	-0,2073	 0,7358	 0,1256	-0,4949	 0,0000	 0,5059	-0,3526	 0,6701	-0,0569	 0,8497	 0,5219	 0,3015	 0,5957	-0,0912	 0,8314	 1,1278	 0,0409	 1,2169	 0,3431	 1,1534	 0,1387	 0,5416
12.06.2026 10:29:10	-0,4124	 0,5745	 0,3394	 0,8986	 0,9833	 0,3847	-0,4234	 0,7001	-0,1511	-0,5117	-0,2073	 0,7307	 0,1277	-0,4957	 0,0000	 0,5066	-0,3723	 0,6723	-0,0613	 0,8482	 0,5241	 0,2993	 0,5927	-0,0905	 0,8314	 1,0950	 0,0606	 1,2074	 0,3716	 1,1264	 0,1737	 0,5475
12.06.2026 10:29:10	-0,4175	 0,5592	 0,2686	 0,8519	 0,9687	 0,3730	-0,4029	 0,7139	-0,1073	-0,5219	-0,2168	 0,7307	 0,1234	-0,5000	 0,0000	 0,5066	-0,3818	 0,6599	-0,0657	 0,8439	 0,5212	 0,2964	 0,5906	-0,0942	 0,8285	 1,2110	 0,0774	 1,2023	 0,3592	 1,1315	 0,1657	 0,5621
12.06.2026 10:29:10	-0,3978	 0,5650	 0,3059	 0,8460	 0,9694	 0,3847	-0,3453	 0,6964	-0,1139	-0,5190	-0,2132	 0,7336	 0,1168	-0,4964	 0,0000	 0,5022	-0,3467	 0,6584	-0,0613	 0,8468	 0,5227	 0,2993	 0,5964	-0,0883	 0,8351	 1,1767	 0,0825	 1,1884	 0,3497	 1,1344	 0,1496	 0,5511
12.06.2026 10:29:10	-0,4081	 0,5643	 0,4110	 0,8687	 0,9701	 0,3949	-0,3942	 0,6891	-0,1409	-0,5139	-0,2168	 0,7329	 0,1343	-0,4935	 0,0000	 0,5030	-0,3453	 0,6643	-0,0613	 0,8453	 0,5234	 0,3008	 0,6000	-0,0883	 0,8373	 1,1921	 0,0832	 1,2074	 0,3504	 1,1563	 0,1445	 0,5453
12.06.2026 10:29:10	-0,4015	 0,5803	 0,4110	 0,8898	 0,9658	 0,3869	-0,3956	 0,6913	-0,1489	-0,5037	-0,2066	 0,7380	 0,1248	-0,5000	 0,0000	 0,5059	-0,3489	 0,6701	-0,0555	 0,8460	 0,5234	 0,3044	 0,6030	-0,0832	 0,8409	 1,2380	 0,0956	 1,1994	 0,3752	 1,1614	 0,1518	 0,5489
12.06.2026 10:29:10	-0,3832	 0,5927	 0,4110	 0,9015	 0,9753	 0,3876	-0,3978	 0,6847	-0,1190	-0,4905	-0,1978	 0,7329	 0,1212	-0,5051	 0,0000	 0,5088	-0,3365	 0,6760	-0,0613	 0,8417	 0,5219	 0,3051	 0,6052	-0,0883	 0,8395	 1,1256	 0,0971	 1,1884	 0,3869	 1,1526	 0,1606	 0,5650
12.06.2026 10:29:10	-0,3818	 0,5898	 0,3935	 0,8884	 0,9650	 0,3883	-0,4263	 0,6928	-0,1124	-0,4942	-0,1949	 0,7358	 0,1496	-0,4964	 0,0000	 0,5073	-0,3438	 0,6840	-0,0599	 0,8409	 0,5197	 0,3029	 0,6044	-0,0905	 0,8358	 1,1030	 0,1044	 1,1869	 0,4000	 1,1680	 0,1737	 0,5738
12.06.2026 10:29:10	-0,3781	 0,5906	 0,3416	 0,8672	 0,9665	 0,3905	-0,3708	 0,6935	-0,1285	-0,4964	-0,1883	 0,7358	 0,1533	-0,4891	 0,0000	 0,5037	-0,3453	 0,6782	-0,0540	 0,8431	 0,5197	 0,3008	 0,6000	-0,0876	 0,8344	 1,1205	 0,0825	 1,2161	 0,3737	 1,2067	 0,1372	 0,5986
12.06.2026 10:29:10	-0,3840	 0,5825	 0,3321	 0,8731	 0,9789	 0,3898	-0,3438	 0,6928	-0,1307	-0,4942	-0,1891	 0,7475	 0,1321	-0,4913	 0,0000	 0,5051	-0,3540	 0,6767	-0,0526	 0,8409	 0,5197	 0,3008	 0,6008	-0,0847	 0,8344	 1,0899	 0,0102	 1,2804	 0,2847	 1,2599	 0,0613	 0,6263
12.06.2026 10:29:10	-0,3767	 0,5665	 0,3438	 0,8862	 0,9753	 0,3905	-0,3920	 0,6928	-0,1256	-0,4942	-0,2015	 0,7424	 0,1197	-0,4949	 0,0000	 0,5066	-0,3708	 0,6818	-0,0547	 0,8395	 0,5183	 0,3029	 0,6022	-0,0839	 0,8358	 1,1198	 0,0285	 1,2446	 0,3015	 1,2088	 0,0766	 0,5803
12.06.2026 10:29:10	-0,3803	 0,5672	 0,3730	 0,8913	 0,9723	 0,3935	-0,3832	 0,6840	-0,1204	-0,4905	-0,1971	 0,7329	 0,1314	-0,4913	 0,0000	 0,5037	-0,3438	 0,6818	-0,0584	 0,8387	 0,5205	 0,3029	 0,6022	-0,0854	 0,8351	 1,1380	 0,0708	 1,1986	 0,3446	 1,1556	 0,1117	 0,5548
12.06.2026 10:29:10	-0,3905	 0,5869	 0,3628	 0,8869	 0,9687	 0,3832	-0,3905	 0,6862	-0,1153	-0,4986	-0,1847	 0,7446	 0,1263	-0,4927	 0,0000	 0,5022	-0,3416	 0,6833	-0,0540	 0,8395	 0,5212	 0,3029	 0,6015	-0,0810	 0,8322	 1,1840	 0,0934	 1,1614	 0,3708	 1,1366	 0,1380	 0,5329
12.06.2026 10:29:10	-0,3869	 0,5964	 0,3088	 0,8636	 0,9650	 0,3810	-0,4168	 0,6964	-0,1073	-0,5022	-0,1832	 0,7358	 0,1314	-0,4957	 0,0000	 0,5015	-0,3460	 0,6796	-0,0562	 0,8373	 0,5168	 0,3015	 0,5993	-0,0825	 0,8322	 1,1979	 0,1000	 1,1439	 0,3818	 1,1096	 0,1423	 0,5000
12.06.2026 10:29:10	-0,3986	 0,5891	 0,2993	 0,8672	 0,9534	 0,3737	-0,3759	 0,6898	-0,1219	-0,4978	-0,1934	 0,7387	 0,1358	-0,4891	 0,0000	 0,5015	-0,3292	 0,6782	-0,0328	 0,8453	 0,5197	 0,3029	 0,5993	-0,0745	 0,8358	 1,1483	 0,0971	 1,1358	 0,3708	 1,0942	 0,1387	 0,4781
