%%%%%%%%%%%%%%%%%%%%%%%%%%%%%%%%%%%%%%%%%%%%%%%%%%%%%%%%%%%%%%%%%%%%%%%%%%%%%%%%%%%%%%%%%%%%%%%%%%%%%%%%%%%%%%%%%%%%%%%%%%%%%%%%%%%%%%%%%%%%%%%%%%%%%%%%%%%%%%%%%%%%%%%%%%%%%%%%%%%%%%%%%%%%%%%%%%%%%%%%%%%%%%%%%%%%%%%%%%%%%%%%%%%%%%%%%%%%%%%%%%%%%%%%%%%%%%%%%%%%%%%%%%%%%%%%%%%%%%%%%%%%%%%%%%%%%%%%%%%%%%%%%%%%%%%%%%%%%%%%%%%%%%%%%%%%%%%
% Original Record Key:	f4cf522b-7d65-4f17-a51e-d59b99440df2
% Original ChartItem Key:	fe7c9e3d-e25d-4a80-a0a3-7136dbd7655e
% Original file start/end time:	12.06.2026 10:29:09	12.06.2026 10:49:26
% Exported file start/end time:	12.06.2026 10:29:40	12.06.2026 10:30:10
% Units:	mV
%%%%%%%%%%%%%%%%%%%%%%%%%%%%%%%%%%%%%%%%%%%%%%%%%%%%%%%%%%%%%%%%%%%%%%%%%%%%%%%%%%%%%%%%%%%%%%%%%%%%%%%%%%%%%%%%%%%%%%%%%%%%%%%%%%%%%%%%%%%%%%%%%%%%%%%%%%%%%%%%%%%%%%%%%%%%%%%%%%%%%%%%%%%%%%%%%%%%%%%%%%%%%%%%%%%%%%%%%%%%%%%%%%%%%%%%%%%%%%%%%%%%%%%%%%%%%%%%%%%%%%%%%%%%%%%%%%%%%%%%%%%%%%%%%%%%%%%%%%%%%%%%%%%%%%%%%%%%%%%%%%%%%%%%%%%%%%%
% Patient's Name:	PgD7c38CRN, yKfwb3Plsg
% Sampling Rate	500 Hz
% Channels	39
% Patient ID Study ID	 Standard-EEG (Essentia)
% Date.Time	 E1/Pg1	 E2/Pg2	    Fp1	    Fp2	     T1	     F7	     F3	     Fz	     F4	     F8	     T2	     A1	     T7	     C3	     Cz	     C4	     T8	     A2	     P7	     P3	     Pz	     P4	     P8	     O1	     O2	     1A	     1A	     2A	     2A	     3A	     3A	     4A	     4A	     5A	     5A	     6A	     6A	     7A	     7A	
%%%%%%%%%%%%%%%%%%%%%%%%%%%%%%%%%%%%%%%%%%%%%%%%%%%%%%%%%%%%%%%%%%%%%%%%%%%%%%%%%%%%%%%%%%%%%%%%%%%%%%%%%%%%%%%%%%%%%%%%%%%%%%%%%%%%%%%%%%%%%%%%%%%%%%%%%%%%%%%%%%%%%%%%%%%%%%%%%%%%%%%%%%%%%%%%%%%%%%%%%%%%%%%%%%%%%%%%%%%%%%%%%%%%%%%%%%%%%%%%%%%%%%%%%%%%%%%%%%%%%%%%%%%%%%%%%%%%%%%%%%%%%%%%%%%%%%%%%%%%%%%%%%%%%%%%%%%%%%%%%%%%%%%%%%%%%%%
12.06.2026 10:29:39	-0,1511	-0,0956	-0,0679	 0,1387	-0,0847	-0,1197	-0,0350	 0,0044	-0,0270	-0,0365	-0,0445	-0,0051	-0,0591	-0,0628	 0,0000	-0,0029	 0,0321	-0,0175	-0,0686	-0,0015	 0,0394	 0,0000	-0,0445	-0,0489	 0,0066	-3,2287	 0,0766	-0,1993	-0,0299	-0,1847	-0,0482	-0,2869
12.06.2026 10:29:39	-0,1577	-0,0839	-0,0139	 0,1475	-0,0869	-0,1226	-0,0620	-0,0015	 0,0044	-0,0263	-0,0365	-0,0044	-0,0650	-0,0657	 0,0000	-0,0015	-0,0146	-0,0131	-0,0708	-0,0029	 0,0401	 0,0000	-0,0431	-0,0489	 0,0051	-3,2440	 0,0759	-0,2124	-0,0190	-0,1883	-0,0328	-0,2818
12.06.2026 10:29:39	-0,1650	-0,0927	-0,0321	 0,1263	-0,0920	-0,1365	-0,0496	 0,0000	 0,0299	-0,0343	-0,0431	-0,0066	-0,0635	-0,0657	 0,0000	-0,0015	-0,0073	-0,0161	-0,0759	-0,0051	 0,0380	-0,0015	-0,0460	-0,0526	 0,0036	-3,2908	 0,0920	-0,2248	-0,0058	-0,1861	-0,0124	-0,3000
12.06.2026 10:29:39	-0,1672	-0,0956	-0,1336	 0,0993	-0,0956	-0,1423	-0,0387	 0,0139	 0,0175	-0,0336	-0,0482	-0,0088	-0,0745	-0,0664	 0,0000	-0,0022	-0,0453	-0,0255	-0,0766	-0,0066	 0,0350	-0,0051	-0,0489	-0,0577	 0,0007	-3,3973	 0,0730	-0,2095	-0,0124	-0,1628	-0,0204	-0,2942
12.06.2026 10:29:39	-0,1715	-0,0949	-0,1694	 0,0774	-0,0942	-0,1423	-0,0314	 0,0161	 0,0299	-0,0460	-0,0489	-0,0058	-0,0766	-0,0686	 0,0000	-0,0029	-0,0416	-0,0190	-0,0752	-0,0073	 0,0343	-0,0036	-0,0453	-0,0577	 0,0029	-3,4659	 0,0620	-0,1964	-0,0248	-0,1606	-0,0365	-0,2891
12.06.2026 10:29:39	-0,1745	-0,0898	-0,0285	 0,0825	-0,0891	-0,1358	-0,0577	 0,0153	 0,0307	-0,0489	-0,0460	-0,0036	-0,0672	-0,0657	 0,0000	-0,0036	-0,0146	-0,0109	-0,0723	-0,0051	 0,0372	 0,0000	-0,0387	-0,0533	 0,0088	-3,5309	 0,0745	-0,1934	-0,0241	-0,1475	-0,0263	-0,2526
12.06.2026 10:29:39	-0,1686	-0,0891	 0,0022	 0,0686	-0,0978	-0,1358	-0,0380	 0,0080	 0,0489	-0,0387	-0,0438	-0,0051	-0,0642	-0,0650	 0,0000	 0,0036	-0,0912	-0,0153	-0,0715	-0,0044	 0,0380	 0,0036	-0,0394	-0,0526	 0,0102	-3,6484	 0,0708	-0,2007	-0,0416	-0,1460	-0,0248	-0,2453
12.06.2026 10:29:39	-0,1628	-0,1022	-0,0423	 0,0350	-0,0934	-0,1343	-0,0401	 0,0124	 0,0540	-0,0540	-0,0438	-0,0022	-0,0431	-0,0642	 0,0000	 0,0088	-0,1022	-0,0153	-0,0686	-0,0044	 0,0372	 0,0029	-0,0409	-0,0511	 0,0117	-3,7901	 0,0847	-0,1905	-0,0431	-0,1540	-0,0051	-0,2460
12.06.2026 10:29:39	-0,1657	-0,1066	-0,0642	 0,0146	-0,0876	-0,1307	-0,0336	 0,0190	 0,0796	-0,0577	-0,0474	-0,0022	-0,0394	-0,0620	 0,0000	 0,0036	-0,0547	-0,0124	-0,0701	-0,0036	 0,0387	 0,0029	-0,0387	-0,0504	 0,0139	-3,8273	 0,0905	-0,1883	-0,0285	-0,1496	 0,0007	-0,2402
12.06.2026 10:29:39	-0,1635	-0,1022	-0,1175	 0,0212	-0,0898	-0,1307	-0,0314	 0,0190	 0,0577	-0,0562	-0,0474	-0,0007	-0,0599	-0,0620	 0,0000	 0,0000	-0,0066	-0,0124	-0,0686	-0,0022	 0,0409	 0,0066	-0,0358	-0,0482	 0,0175	-3,8302	 0,0891	-0,1956	-0,0307	-0,1599	-0,0139	-0,2445
12.06.2026 10:29:39	-0,1496	-0,1088	-0,0993	 0,1110	-0,0854	-0,1277	-0,0540	 0,0182	 0,0066	-0,0474	-0,0518	 0,0022	-0,0730	-0,0599	 0,0000	-0,0022	 0,0066	-0,0102	-0,0686	-0,0007	 0,0423	 0,0058	-0,0343	-0,0467	 0,0168	-3,9404	 0,1117	-0,1913	-0,0234	-0,1555	-0,0029	-0,2365
12.06.2026 10:29:39	-0,1416	-0,1161	-0,0416	 0,1759	-0,0898	-0,1168	-0,0409	 0,0073	 0,0022	-0,0365	-0,0489	 0,0007	-0,0657	-0,0591	 0,0000	-0,0029	 0,0007	-0,0117	-0,0672	 0,0015	 0,0438	 0,0058	-0,0358	-0,0453	 0,0153	-4,0149	 0,1277	-0,1891	-0,0204	-0,1518	 0,0066	-0,2409
12.06.2026 10:29:39	-0,1350	-0,0971	-0,0292	 0,1518	-0,0774	-0,1124	-0,0401	 0,0044	 0,0000	-0,0343	-0,0380	 0,0044	-0,0569	-0,0562	 0,0000	-0,0036	-0,0022	-0,0095	-0,0628	 0,0029	 0,0431	 0,0080	-0,0343	-0,0438	 0,0175	-4,0069	 0,1241	-0,1832	-0,0416	-0,1518	-0,0029	-0,2497
12.06.2026 10:29:39	-0,1372	-0,0737	-0,0234	 0,1219	-0,0642	-0,1234	-0,0431	 0,0000	 0,0109	-0,0314	-0,0328	 0,0073	-0,0628	-0,0591	 0,0000	-0,0015	-0,0153	-0,0058	-0,0672	 0,0000	 0,0423	 0,0066	-0,0350	-0,0460	 0,0168	-4,0996	 0,1022	-0,1701	-0,0518	-0,1423	-0,0336	-0,2548
12.06.2026 10:29:39	-0,1518	-0,0759	-0,1204	 0,0781	-0,0781	-0,1350	-0,0380	 0,0161	 0,0759	-0,0380	-0,0372	-0,0036	-0,0642	-0,0628	 0,0000	 0,0007	-0,0161	-0,0080	-0,0737	-0,0044	 0,0387	 0,0022	-0,0387	-0,0511	 0,0109	-4,2463	 0,0796	-0,1569	-0,0613	-0,1277	-0,0540	-0,2445
12.06.2026 10:29:39	-0,1635	-0,0861	-0,1891	 0,0263	-0,0978	-0,1431	-0,0080	 0,0394	 0,0606	-0,0496	-0,0504	 0,0036	-0,0518	-0,0569	 0,0000	-0,0022	-0,0204	-0,0146	-0,0701	-0,0044	 0,0365	 0,0000	-0,0409	-0,0526	 0,0080	-4,2908	 0,0686	-0,1548	-0,0591	-0,1307	-0,0533	-0,2205
12.06.2026 10:29:39	-0,1555	-0,0803	-0,1562	 0,0350	-0,0934	-0,1402	-0,0073	 0,0248	 0,0095	-0,0482	-0,0431	 0,0088	-0,0599	-0,0577	 0,0000	-0,0029	-0,0307	-0,0131	-0,0642	-0,0015	 0,0394	 0,0036	-0,0387	-0,0482	 0,0124	-4,3784	 0,0796	-0,1621	-0,0358	-0,1482	-0,0474	-0,2183
12.06.2026 10:29:39	-0,1482	-0,0796	-0,0737	 0,0467	-0,0759	-0,1321	-0,0372	 0,0102	 0,0380	-0,0489	-0,0350	 0,0088	-0,0708	-0,0606	 0,0000	 0,0022	-0,0051	-0,0102	-0,0650	-0,0007	 0,0409	 0,0066	-0,0350	-0,0453	 0,0168	-4,4186	 0,1044	-0,1876	-0,0022	-0,1635	-0,0219	-0,2409
12.06.2026 10:29:39	-0,1584	-0,0912	-0,0175	 0,0124	-0,0715	-0,1329	-0,0577	 0,0131	 0,0526	-0,0504	-0,0482	 0,0153	-0,0474	-0,0569	 0,0000	 0,0044	-0,1577	-0,0095	-0,0628	 0,0015	 0,0431	 0,0073	-0,0380	-0,0416	 0,0168	-4,4310	 0,1102	-0,1986	 0,0058	-0,1876	 0,0007	-0,2737
12.06.2026 10:29:39	-0,1730	-0,1015	-0,2438	-0,0584	-0,1015	-0,1482	-0,0898	 0,0372	 0,0869	-0,0511	-0,0526	-0,0073	-0,0482	-0,0569	 0,0000	 0,0058	-0,1431	-0,0095	-0,0701	-0,0015	 0,0401	 0,0044	-0,0416	-0,0482	 0,0109	-4,4631	 0,1153	-0,2059	-0,0015	-0,1986	-0,0022	-0,2913
12.06.2026 10:29:39	-0,1664	-0,1066	-0,2810	-0,0036	-0,1022	-0,1453	-0,0343	 0,0482	 0,0328	-0,0518	-0,0526	-0,0066	-0,0387	-0,0584	 0,0000	 0,0044	 0,0540	-0,0153	-0,0759	-0,0036	 0,0380	 0,0007	-0,0423	-0,0511	 0,0088	-4,4244	 0,1183	-0,1956	-0,0161	-0,2000	 0,0044	-0,2686
12.06.2026 10:29:39	-0,1496	-0,0978	-0,0832	 0,1555	-0,0701	-0,1175	-0,0168	 0,0109	-0,0007	-0,0365	-0,0460	 0,0051	-0,0182	-0,0526	 0,0000	 0,0015	-0,0204	-0,0117	-0,0620	 0,0051	 0,0453	 0,0066	-0,0365	-0,0380	 0,0153	-4,3551	 0,1044	-0,1810	-0,0307	-0,1913	 0,0109	-0,2453
12.06.2026 10:29:39	-0,1540	-0,0920	-0,0175	 0,1708	-0,0788	-0,1117	-0,0460	-0,0058	 0,0263	-0,0431	-0,0343	 0,0102	-0,0343	-0,0511	 0,0000	 0,0044	-0,0715	-0,0088	-0,0496	 0,0109	 0,0496	 0,0095	-0,0358	-0,0299	 0,0197	-4,2587	 0,0905	-0,1876	-0,0387	-0,1730	-0,0036	-0,2351
12.06.2026 10:29:39	-0,1555	-0,0949	-0,0314	 0,0825	-0,0723	-0,1204	-0,0431	 0,0029	 0,0328	-0,0533	-0,0401	 0,0073	-0,0672	-0,0606	 0,0000	 0,0058	-0,0336	-0,0124	-0,0591	 0,0036	 0,0445	 0,0058	-0,0387	-0,0372	 0,0168	-4,2324	 0,0942	-0,2007	-0,0372	-0,1847	-0,0051	-0,2584
12.06.2026 10:29:39	-0,1496	-0,0949	-0,0650	-0,0073	-0,0759	-0,1285	-0,0708	 0,0161	 0,0847	-0,0504	-0,0474	-0,0015	-0,0708	-0,0620	 0,0000	 0,0073	 0,0263	-0,0117	-0,0635	 0,0015	 0,0423	 0,0044	-0,0365	-0,0409	 0,0131	-4,2215	 0,0876	-0,1796	-0,0387	-0,1730	-0,0182	-0,2548
12.06.2026 10:29:39	-0,1380	-0,0912	-0,1139	 0,0131	-0,0774	-0,1387	-0,0387	 0,0387	 0,1051	-0,0467	-0,0489	 0,0095	-0,0591	-0,0577	 0,0000	 0,0029	 0,0066	-0,0102	-0,0599	 0,0015	 0,0401	 0,0015	-0,0409	-0,0401	 0,0131	-4,2237	 0,0810	-0,1767	-0,0416	-0,1715	-0,0248	-0,2299
12.06.2026 10:29:39	-0,1285	-0,0883	-0,1423	 0,0796	-0,0788	-0,1256	 0,0124	 0,0307	 0,0562	-0,0401	-0,0504	 0,0080	-0,0555	-0,0555	 0,0000	-0,0015	-0,0102	-0,0058	-0,0599	 0,0015	 0,0394	 0,0022	-0,0372	-0,0394	 0,0153	-4,2791	 0,0533	-0,1548	-0,0759	-0,1496	-0,0474	-0,1993
12.06.2026 10:29:39	-0,1350	-0,0898	-0,0854	 0,1292	-0,0759	-0,1139	-0,0248	 0,0124	 0,0182	-0,0380	-0,0474	 0,0058	-0,0540	-0,0555	 0,0000	 0,0000	-0,0175	-0,0029	-0,0562	 0,0058	 0,0438	 0,0051	-0,0336	-0,0321	 0,0212	-4,2974	-0,0015	-0,0832	-0,1394	-0,1007	-0,1037	-0,1380
12.06.2026 10:29:39	-0,1402	-0,0854	-0,0511	 0,1183	-0,0672	-0,1146	-0,0482	 0,0161	-0,0044	-0,0314	-0,0409	 0,0073	-0,0540	-0,0555	 0,0000	 0,0029	-0,0664	 0,0000	-0,0533	 0,0095	 0,0482	 0,0080	-0,0343	-0,0263	 0,0255	-4,2259	 0,0234	-0,1022	-0,1161	-0,1292	-0,0876	-0,1635
12.06.2026 10:29:39	-0,1336	-0,0766	 0,0073	 0,1241	-0,0723	-0,1022	-0,0197	 0,0139	-0,0292	-0,0299	-0,0241	 0,0088	-0,0431	-0,0533	 0,0000	 0,0044	-0,0095	 0,0007	-0,0482	 0,0139	 0,0518	 0,0153	-0,0255	-0,0219	 0,0307	-4,1879	 0,0591	-0,1241	-0,0949	-0,1540	-0,0745	-0,2051
12.06.2026 10:29:39	-0,1241	-0,0847	 0,0358	 0,1372	-0,0620	-0,0949	-0,0526	 0,0022	 0,0204	-0,0263	-0,0307	 0,0117	-0,0416	-0,0526	 0,0000	 0,0036	 0,0146	-0,0015	-0,0474	 0,0146	 0,0540	 0,0146	-0,0234	-0,0197	 0,0314	-4,2149	 0,0774	-0,1518	-0,0745	-0,1861	-0,0562	-0,2307
12.06.2026 10:29:39	-0,1314	-0,0861	 0,0234	 0,0847	-0,0650	-0,1029	-0,0445	 0,0109	 0,0445	-0,0380	-0,0380	 0,0073	-0,0438	-0,0540	 0,0000	 0,0073	-0,0708	-0,0007	-0,0511	 0,0124	 0,0533	 0,0124	-0,0292	-0,0219	 0,0285	-4,1704	 0,1153	-0,1715	-0,0372	-0,1854	-0,0197	-0,2497
12.06.2026 10:29:39	-0,1423	-0,0803	-0,0241	 0,0686	-0,0752	-0,1131	-0,0299	 0,0321	 0,0380	-0,0460	-0,0255	 0,0066	-0,0467	-0,0555	 0,0000	 0,0036	-0,0569	-0,0051	-0,0540	 0,0109	 0,0496	 0,0095	-0,0328	-0,0255	 0,0248	-4,1302	 0,1146	-0,1650	-0,0423	-0,1504	-0,0292	-0,2518
12.06.2026 10:29:39	-0,1416	-0,0876	-0,1577	 0,0336	-0,0664	-0,1168	-0,0095	 0,0248	 0,0380	-0,0394	-0,0358	 0,0058	-0,0496	-0,0504	 0,0000	-0,0015	 0,0117	-0,0066	-0,0562	 0,0088	 0,0482	 0,0073	-0,0314	-0,0285	 0,0226	-4,1244	 0,0964	-0,1511	-0,0584	-0,1394	-0,0635	-0,2438
12.06.2026 10:29:39	-0,1511	-0,0912	-0,1715	 0,0599	-0,0818	-0,1175	 0,0124	 0,0190	 0,0511	-0,0460	-0,0380	 0,0022	-0,0380	-0,0540	 0,0000	 0,0007	 0,0036	-0,0066	-0,0562	 0,0095	 0,0467	 0,0088	-0,0321	-0,0307	 0,0219	-4,1492	 0,1029	-0,1416	-0,0679	-0,1358	-0,0650	-0,2256
12.06.2026 10:29:39	-0,1540	-0,0883	-0,0526	 0,0905	-0,0883	-0,1110	-0,0394	 0,0270	 0,0599	-0,0431	-0,0372	 0,0051	-0,0299	-0,0547	 0,0000	 0,0029	-0,0051	-0,0066	-0,0526	 0,0117	 0,0482	 0,0102	-0,0314	-0,0292	 0,0226	-4,1835	 0,1219	-0,1504	-0,0504	-0,1416	-0,0431	-0,2175
12.06.2026 10:29:39	-0,1453	-0,0854	-0,0336	 0,0752	-0,0759	-0,1080	-0,0613	 0,0190	 0,0613	-0,0394	-0,0394	 0,0124	-0,0336	-0,0533	 0,0000	 0,0073	-0,0606	-0,0036	-0,0489	 0,0124	 0,0496	 0,0117	-0,0299	-0,0263	 0,0248	-4,2105	 0,1088	-0,1372	-0,0562	-0,1423	-0,0526	-0,2102
12.06.2026 10:29:39	-0,1482	-0,0869	-0,0394	 0,0956	-0,0781	-0,1095	-0,0343	 0,0248	 0,0460	-0,0416	-0,0380	 0,0124	-0,0438	-0,0540	 0,0000	 0,0044	-0,0650	-0,0044	-0,0474	 0,0124	 0,0496	 0,0117	-0,0299	-0,0270	 0,0263	-4,2127	 0,1051	-0,1336	-0,0701	-0,1467	-0,0664	-0,2168
12.06.2026 10:29:39	-0,1402	-0,0796	-0,0569	 0,1000	-0,0635	-0,1088	-0,0467	 0,0109	 0,0255	-0,0343	-0,0277	 0,0168	-0,0190	-0,0511	 0,0000	 0,0029	-0,1044	 0,0000	-0,0467	 0,0153	 0,0533	 0,0117	-0,0263	-0,0234	 0,0255	-4,1003	 0,1102	-0,1285	-0,0788	-0,1365	-0,0869	-0,2351
12.06.2026 10:29:39	-0,1263	-0,0810	-0,1584	 0,0730	-0,0657	-0,1139	-0,0635	 0,0117	 0,0336	-0,0387	-0,0321	 0,0139	-0,0066	-0,0496	 0,0000	 0,0058	-0,0401	-0,0015	-0,0496	 0,0124	 0,0533	 0,0131	-0,0285	-0,0255	 0,0241	-3,9886	 0,0956	-0,1314	-0,1022	-0,1409	-0,0934	-0,2555
12.06.2026 10:29:39	-0,1299	-0,0912	-0,1204	 0,0518	-0,0803	-0,1139	-0,0263	 0,0241	 0,0314	-0,0504	-0,0482	 0,0102	-0,0380	-0,0526	 0,0000	 0,0007	 0,0672	-0,0088	-0,0504	 0,0102	 0,0518	 0,0109	-0,0314	-0,0263	 0,0219	-3,9390	 0,1190	-0,1394	-0,0832	-0,1394	-0,0606	-0,2591
12.06.2026 10:29:39	-0,1416	-0,0964	-0,0058	 0,0971	-0,0672	-0,1139	-0,0401	 0,0263	 0,0591	-0,0423	-0,0474	 0,0153	-0,0701	-0,0569	 0,0000	 0,0007	 0,0124	-0,0109	-0,0504	 0,0109	 0,0518	 0,0102	-0,0328	-0,0277	 0,0204	-3,8178	 0,1569	-0,1409	-0,0401	-0,1270	-0,0270	-0,2570
12.06.2026 10:29:39	-0,1460	-0,0964	-0,0482	 0,1080	-0,0723	-0,1183	-0,0693	 0,0219	 0,0416	-0,0343	-0,0380	 0,0131	-0,0759	-0,0562	 0,0000	 0,0022	-0,0088	-0,0051	-0,0518	 0,0117	 0,0526	 0,0124	-0,0299	-0,0277	 0,0226	-3,6747	 0,1613	-0,1635	-0,0358	-0,1548	-0,0387	-0,2694
12.06.2026 10:29:39	-0,1460	-0,0971	-0,1577	 0,0423	-0,0832	-0,1212	 0,0073	 0,0321	 0,0453	-0,0445	-0,0438	 0,0007	-0,0431	-0,0569	 0,0000	-0,0015	 0,0007	-0,0095	-0,0591	 0,0073	 0,0482	 0,0080	-0,0358	-0,0350	 0,0153	-3,5879	 0,1548	-0,1526	-0,0445	-0,1511	-0,0445	-0,2745
12.06.2026 10:29:39	-0,1460	-0,0949	-0,1548	 0,0372	-0,0693	-0,1387	-0,0438	 0,0380	 0,0613	-0,0511	-0,0460	-0,0029	-0,0409	-0,0577	 0,0000	 0,0007	-0,0679	-0,0161	-0,0664	 0,0015	 0,0431	 0,0051	-0,0431	-0,0431	 0,0080	-3,5265	 0,1569	-0,1482	-0,0321	-0,1482	-0,0350	-0,2745
12.06.2026 10:29:39	-0,1467	-0,0847	-0,1978	-0,0584	-0,0752	-0,1591	-0,0555	 0,0161	 0,0124	-0,0569	-0,0394	 0,0029	-0,0482	-0,0555	 0,0000	 0,0029	-0,1453	-0,0117	-0,0635	 0,0015	 0,0423	 0,0029	-0,0467	-0,0431	 0,0066	-3,5105	 0,1635	-0,1577	-0,0190	-0,1526	-0,0409	-0,2621
12.06.2026 10:29:39	-0,1577	-0,0978	-0,2628	-0,0869	-0,0876	-0,1511	 0,0810	 0,0526	 0,0620	-0,0642	-0,0562	-0,0044	-0,0547	-0,0606	 0,0000	-0,0036	-0,0146	-0,0241	-0,0686	-0,0036	 0,0387	 0,0000	-0,0504	-0,0504	 0,0007	-3,5192	 0,1599	-0,1431	-0,0241	-0,1321	-0,0460	-0,2526
12.06.2026 10:29:39	-0,1548	-0,0993	-0,1263	 0,0745	-0,0876	-0,1212	-0,0387	 0,0197	 0,0993	-0,0635	-0,0504	-0,0022	-0,0599	-0,0635	 0,0000	-0,0015	-0,0285	-0,0263	-0,0650	 0,0007	 0,0438	 0,0051	-0,0431	-0,0423	 0,0073	-3,5389	 0,1504	-0,1621	-0,0263	-0,1482	-0,0445	-0,2694
12.06.2026 10:29:39	-0,1453	-0,0905	 0,0511	 0,0803	-0,0759	-0,1037	-0,1117	-0,0131	 0,0000	-0,0540	-0,0416	 0,0109	-0,0387	-0,0606	 0,0000	 0,0000	-0,0803	-0,0153	-0,0577	 0,0088	 0,0511	 0,0095	-0,0401	-0,0336	 0,0146	-3,4221	 0,1518	-0,1715	-0,0248	-0,1445	-0,0467	-0,2869
12.06.2026 10:29:39	-0,1489	-0,0912	 0,0949	 0,0423	-0,0766	-0,1044	-0,0526	 0,0007	-0,0153	-0,0314	-0,0526	 0,0015	-0,0387	-0,0591	 0,0000	 0,0007	 0,0255	-0,0095	-0,0584	 0,0073	 0,0504	 0,0124	-0,0358	-0,0358	 0,0161	-3,3652	 0,1475	-0,1679	-0,0241	-0,1496	-0,0584	-0,3081
12.06.2026 10:29:39	-0,1387	-0,0964	 0,0511	 0,1095	-0,0730	-0,1007	-0,0810	-0,0036	 0,0124	-0,0409	-0,0511	 0,0102	-0,0547	-0,0584	 0,0000	 0,0051	 0,0285	-0,0109	-0,0511	 0,0080	 0,0511	 0,0131	-0,0328	-0,0307	 0,0168	-3,4024	 0,1460	-0,1788	-0,0109	-0,1752	-0,0562	-0,3022
12.06.2026 10:29:39	-0,1343	-0,1007	-0,0489	 0,1197	-0,0635	-0,1022	-0,0438	 0,0095	-0,0204	-0,0526	-0,0482	 0,0109	-0,0584	-0,0591	 0,0000	 0,0022	 0,0029	-0,0117	-0,0577	 0,0066	 0,0526	 0,0117	-0,0358	-0,0343	 0,0175	-3,2959	 0,1555	-0,1730	 0,0036	-0,1657	-0,0482	-0,2964
12.06.2026 10:29:39	-0,1496	-0,1051	-0,2635	 0,0788	-0,0861	-0,1285	-0,0036	 0,0299	 0,0504	-0,0540	-0,0533	-0,0153	-0,0686	-0,0599	 0,0000	 0,0007	-0,0818	-0,0182	-0,0723	-0,0007	 0,0423	 0,0058	-0,0460	-0,0474	 0,0066	-3,1842	 0,1606	-0,1737	 0,0117	-0,1686	-0,0343	-0,3358
12.06.2026 10:29:39	-0,1642	-0,1226	-0,4154	-0,0277	-0,1029	-0,1445	 0,0547	 0,0650	 0,0912	-0,0752	-0,0642	-0,0197	-0,0686	-0,0628	 0,0000	-0,0029	-0,0431	-0,0292	-0,0766	-0,0066	 0,0336	-0,0007	-0,0526	-0,0562	 0,0000	-3,0907	 0,1577	-0,1774	 0,0095	-0,1745	-0,0547	-0,3694
12.06.2026 10:29:39	-0,1489	-0,1248	-0,2285	-0,0423	-0,0839	-0,1256	 0,0175	 0,0423	 0,0715	-0,0679	-0,0599	-0,0117	-0,0606	-0,0613	 0,0000	-0,0015	-0,0891	-0,0182	-0,0715	-0,0015	 0,0416	 0,0051	-0,0438	-0,0489	 0,0088	-3,1893	 0,1518	-0,1913	 0,0073	-0,1891	-0,0635	-0,4051
12.06.2026 10:29:39	-0,1387	-0,1095	 0,0109	 0,1131	-0,0737	-0,1088	-0,0672	-0,0029	 0,0701	-0,0518	-0,0533	 0,0015	-0,0496	-0,0599	 0,0000	 0,0044	-0,0591	-0,0102	-0,0635	 0,0044	 0,0504	 0,0139	-0,0336	-0,0358	 0,0197	-3,1937	 0,1584	-0,2007	 0,0051	-0,1869	-0,0328	-0,4044
12.06.2026 10:29:39	-0,1496	-0,1007	 0,0701	 0,1621	-0,0854	-0,1183	-0,0818	-0,0139	 0,0474	-0,0672	-0,0511	 0,0051	-0,0350	-0,0599	 0,0000	 0,0066	 0,0540	-0,0080	-0,0628	 0,0051	 0,0526	 0,0153	-0,0292	-0,0350	 0,0226	-3,0433	 0,1664	-0,1964	 0,0117	-0,1788	-0,0467	-0,3854
12.06.2026 10:29:39	-0,1599	-0,1007	 0,0263	 0,0401	-0,0942	-0,1350	-0,0438	 0,0153	 0,0416	-0,0759	-0,0547	-0,0139	-0,0518	-0,0628	 0,0000	 0,0066	-0,0109	-0,0131	-0,0723	-0,0007	 0,0482	 0,0088	-0,0380	-0,0431	 0,0153	-2,9791	 0,1569	-0,2190	 0,0080	-0,1993	-0,0723	-0,3942
12.06.2026 10:29:39	-0,1701	-0,0920	-0,0358	-0,0277	-0,0883	-0,1307	-0,0730	 0,0263	 0,0190	-0,0577	-0,0518	-0,0109	-0,0599	-0,0628	 0,0000	 0,0029	-0,0635	-0,0139	-0,0693	 0,0000	 0,0489	 0,0080	-0,0401	-0,0409	 0,0146	-2,8075	 0,1511	-0,2161	-0,0007	-0,1986	-0,0693	-0,4059
12.06.2026 10:29:39	-0,1613	-0,0876	-0,0847	-0,0015	-0,1000	-0,1241	-0,1467	 0,0131	 0,0365	-0,0511	-0,0401	-0,0007	-0,0474	-0,0599	 0,0000	 0,0007	-0,1818	-0,0066	-0,0628	 0,0044	 0,0533	 0,0102	-0,0401	-0,0350	 0,0190	-2,6819	 0,1416	-0,1971	-0,0124	-0,1869	-0,0803	-0,4146
12.06.2026 10:29:39	-0,1562	-0,0978	-0,1146	 0,0577	-0,0949	-0,1204	-0,0416	 0,0197	 0,0394	-0,0511	-0,0526	-0,0117	-0,0547	-0,0620	 0,0000	-0,0007	-0,0255	-0,0131	-0,0679	 0,0015	 0,0489	 0,0066	-0,0416	-0,0387	 0,0153	-2,6192	 0,1299	-0,1920	-0,0153	-0,1701	-0,1022	-0,3913
12.06.2026 10:29:39	-0,1562	-0,0971	-0,0482	 0,1307	-0,0766	-0,1146	-0,0277	 0,0000	 0,0058	-0,0431	-0,0591	-0,0051	-0,0657	-0,0620	 0,0000	 0,0000	 0,0752	-0,0153	-0,0642	 0,0051	 0,0540	 0,0109	-0,0350	-0,0328	 0,0197	-2,4885	 0,1248	-0,1964	-0,0102	-0,1613	-0,1226	-0,3876
12.06.2026 10:29:39	-0,1504	-0,0978	-0,0445	 0,1175	-0,0803	-0,1139	-0,0423	 0,0131	 0,0182	-0,0438	-0,0569	 0,0000	-0,0650	-0,0628	 0,0000	-0,0022	 0,0007	-0,0190	-0,0657	 0,0036	 0,0526	 0,0095	-0,0380	-0,0336	 0,0197	-2,3381	 0,1299	-0,1986	-0,0051	-0,1701	-0,1277	-0,4073
12.06.2026 10:29:39	-0,1423	-0,1029	-0,0628	 0,0453	-0,0774	-0,1197	-0,0628	 0,0292	 0,0153	-0,0511	-0,0577	-0,0051	-0,0635	-0,0635	 0,0000	-0,0051	-0,0044	-0,0190	-0,0686	 0,0022	 0,0504	 0,0088	-0,0394	-0,0350	 0,0212	-2,2651	 0,1533	-0,2007	 0,0109	-0,1708	-0,1080	-0,4263
12.06.2026 10:29:39	-0,1321	-0,1044	-0,0708	 0,0774	-0,0745	-0,1263	-0,0197	-0,0022	 0,0015	-0,0489	-0,0526	-0,0044	-0,0387	-0,0606	 0,0000	-0,0036	-0,0328	-0,0139	-0,0693	 0,0029	 0,0504	 0,0095	-0,0380	-0,0343	 0,0234	-2,2089	 0,1365	-0,2153	-0,0051	-0,1774	-0,1146	-0,4402
12.06.2026 10:29:39	-0,1387	-0,1153	-0,1124	 0,0036	-0,0927	-0,1270	-0,0285	 0,0095	 0,0350	-0,0708	-0,0686	-0,0117	-0,0394	-0,0577	 0,0000	-0,0051	-0,0438	-0,0204	-0,0723	 0,0000	 0,0460	 0,0044	-0,0438	-0,0401	 0,0175	-2,1797	 0,1241	-0,2059	-0,0095	-0,1920	-0,1124	-0,4227
12.06.2026 10:29:39	-0,1606	-0,1197	-0,1409	-0,1504	-0,1015	-0,1402	-0,0577	 0,0380	 0,0810	-0,0781	-0,0686	-0,0197	-0,0686	-0,0635	 0,0000	-0,0029	-0,0350	-0,0234	-0,0745	-0,0029	 0,0460	 0,0044	-0,0445	-0,0431	 0,0153	-2,2089	 0,1314	-0,1876	 0,0029	-0,1803	-0,1153	-0,4117
12.06.2026 10:29:39	-0,1562	-0,1139	-0,1358	 0,0168	-0,0905	-0,1314	-0,0314	 0,0088	 0,0073	-0,0555	-0,0540	-0,0131	-0,0745	-0,0606	 0,0000	-0,0029	-0,0175	-0,0219	-0,0693	 0,0015	 0,0489	 0,0088	-0,0394	-0,0380	 0,0212	-2,1834	 0,1372	-0,1920	-0,0117	-0,1803	-0,1139	-0,4307
12.06.2026 10:29:39	-0,1358	-0,1037	-0,0387	 0,1759	-0,0701	-0,1161	-0,0679	-0,0095	-0,0343	-0,0518	-0,0533	 0,0000	-0,0642	-0,0562	 0,0000	-0,0036	-0,0102	-0,0161	-0,0613	 0,0088	 0,0547	 0,0139	-0,0314	-0,0285	 0,0299	-1,9885	 0,1423	-0,1913	-0,0175	-0,1861	-0,0788	-0,4446
12.06.2026 10:29:39	-0,1416	-0,1051	-0,0226	 0,1621	-0,0803	-0,1110	-0,0372	-0,0036	 0,0000	-0,0526	-0,0547	 0,0007	-0,0372	-0,0591	 0,0000	-0,0007	-0,0248	-0,0117	-0,0606	 0,0095	 0,0547	 0,0146	-0,0321	-0,0263	 0,0285	-2,0060	 0,1146	-0,1803	-0,0387	-0,1752	-0,1000	-0,4635
12.06.2026 10:29:39	-0,1504	-0,0993	-0,0569	 0,1343	-0,0971	-0,1117	-0,0445	-0,0029	 0,0000	-0,0511	-0,0562	 0,0007	-0,0401	-0,0569	 0,0000	 0,0007	-0,1088	-0,0131	-0,0569	 0,0095	 0,0547	 0,0124	-0,0365	-0,0255	 0,0255	-2,1199	 0,1066	-0,1788	-0,0555	-0,1730	-0,1197	-0,4555
12.06.2026 10:29:39	-0,1540	-0,1037	-0,1445	 0,0599	-0,0818	-0,1241	-0,0036	 0,0146	 0,0328	-0,0650	-0,0562	-0,0036	-0,0504	-0,0569	 0,0000	-0,0007	-0,0482	-0,0175	-0,0635	 0,0058	 0,0496	 0,0088	-0,0394	-0,0307	 0,0204	-1,9177	 0,1124	-0,1803	-0,0482	-0,1781	-0,1110	-0,4329
12.06.2026 10:29:39	-0,1562	-0,1110	-0,1701	 0,0547	-0,0810	-0,1226	-0,0066	 0,0255	 0,0489	-0,0730	-0,0606	-0,0029	-0,0591	-0,0562	 0,0000	-0,0029	 0,0102	-0,0182	-0,0613	 0,0044	 0,0489	 0,0058	-0,0394	-0,0314	 0,0197	-1,7636	 0,1321	-0,1861	-0,0212	-0,1876	-0,1088	-0,4438
12.06.2026 10:29:39	-0,1453	-0,0942	-0,0219	 0,1270	-0,0723	-0,1095	-0,0672	 0,0058	 0,0139	-0,0562	-0,0511	 0,0080	-0,0650	-0,0584	 0,0000	 0,0007	-0,0190	-0,0066	-0,0526	 0,0088	 0,0540	 0,0109	-0,0307	-0,0241	 0,0270	-1,6614	 0,1409	-0,1905	-0,0015	-0,1891	-0,1066	-0,4511
12.06.2026 10:29:39	-0,1460	-0,1007	 0,0109	 0,1263	-0,0708	-0,1051	-0,0759	 0,0000	 0,0066	-0,0504	-0,0445	 0,0058	-0,0526	-0,0577	 0,0000	 0,0007	-0,0117	-0,0088	-0,0533	 0,0095	 0,0526	 0,0139	-0,0299	-0,0241	 0,0285	-1,5899	 0,1329	-0,1934	-0,0080	-0,1898	-0,1131	-0,4643
12.06.2026 10:29:39	-0,1496	-0,1058	-0,0328	 0,0993	-0,0803	-0,1110	-0,0635	 0,0058	 0,0109	-0,0562	-0,0467	 0,0058	-0,0555	-0,0562	 0,0000	 0,0000	-0,0263	-0,0131	-0,0540	 0,0088	 0,0518	 0,0146	-0,0336	-0,0248	 0,0285	-1,5811	 0,1380	-0,1956	-0,0051	-0,1898	-0,1139	-0,4577
12.06.2026 10:29:39	-0,1431	-0,1073	-0,0438	 0,0927	-0,0818	-0,1139	-0,0482	 0,0044	 0,0080	-0,0599	-0,0555	 0,0022	-0,0431	-0,0577	 0,0000	 0,0015	-0,0365	-0,0139	-0,0569	 0,0073	 0,0489	 0,0139	-0,0372	-0,0307	 0,0255	-1,5724	 0,1540	-0,1978	 0,0044	-0,1905	-0,0905	-0,4533
12.06.2026 10:29:39	-0,1496	-0,1124	-0,0934	 0,0489	-0,0774	-0,1175	-0,0555	 0,0095	 0,0285	-0,0628	-0,0577	 0,0000	-0,0350	-0,0569	 0,0000	-0,0007	-0,0307	-0,0204	-0,0599	 0,0058	 0,0482	 0,0117	-0,0380	-0,0343	 0,0234	-1,5592	 0,1642	-0,2146	 0,0139	-0,1971	-0,0766	-0,4606
12.06.2026 10:29:39	-0,1496	-0,1146	-0,1781	 0,0255	-0,0723	-0,1234	-0,0409	 0,0234	 0,0365	-0,0693	-0,0657	-0,0007	-0,0518	-0,0577	 0,0000	-0,0022	-0,0204	-0,0219	-0,0599	 0,0051	 0,0474	 0,0102	-0,0380	-0,0343	 0,0226	-1,4373	 0,1591	-0,1934	 0,0015	-0,1796	-0,0891	-0,4409
12.06.2026 10:29:39	-0,1358	-0,1241	-0,1007	 0,0095	-0,0752	-0,1197	-0,0489	 0,0131	 0,0489	-0,0664	-0,0686	-0,0058	-0,0584	-0,0555	 0,0000	-0,0036	-0,0416	-0,0212	-0,0599	 0,0066	 0,0467	 0,0088	-0,0431	-0,0387	 0,0182	-1,3432	 0,1555	-0,1460	 0,0036	-0,1431	-0,0927	-0,4190
12.06.2026 10:29:39	-0,1314	-0,1139	-0,0401	 0,0467	-0,0715	-0,1168	-0,0927	 0,0022	 0,0182	-0,0555	-0,0650	-0,0029	-0,0569	-0,0518	 0,0000	-0,0022	-0,0146	-0,0212	-0,0569	 0,0088	 0,0496	 0,0109	-0,0401	-0,0372	 0,0190	-1,3176	 0,1423	-0,1161	-0,0058	-0,1117	-0,0978	-0,3708
12.06.2026 10:29:39	-0,1402	-0,1029	-0,2358	 0,0672	-0,0774	-0,1307	-0,0029	 0,0197	 0,0277	-0,0810	-0,0584	-0,0080	-0,0599	-0,0533	 0,0000	-0,0066	-0,1350	-0,0255	-0,0635	 0,0036	 0,0431	 0,0029	-0,0496	-0,0445	 0,0073	-1,2176	 0,1343	-0,0956	-0,0117	-0,0832	-0,0993	-0,3394
12.06.2026 10:29:39	-0,1467	-0,1131	-0,2511	 0,0073	-0,0956	-0,1358	 0,0190	 0,0234	 0,0708	-0,0869	-0,0613	-0,0095	-0,0460	-0,0518	 0,0000	-0,0080	-0,0985	-0,0248	-0,0672	 0,0007	 0,0394	-0,0022	-0,0569	-0,0526	-0,0007	-1,1176	 0,1372	-0,0847	 0,0109	-0,0810	-0,0869	-0,3424
12.06.2026 10:29:39	-0,1423	-0,1183	-0,0511	 0,0489	-0,0832	-0,1226	-0,0511	 0,0066	-0,0073	-0,0723	-0,0781	-0,0022	-0,0482	-0,0526	 0,0000	-0,0036	-0,0139	-0,0234	-0,0628	 0,0022	 0,0431	 0,0022	-0,0474	-0,0496	 0,0022	-1,0672	 0,1321	-0,0993	 0,0029	-0,0898	-0,0839	-0,3599
12.06.2026 10:29:39	-0,1372	-0,1183	-0,0234	 0,0161	-0,0737	-0,1110	-0,0642	-0,0015	-0,0168	-0,0766	-0,0620	-0,0044	-0,0387	-0,0547	 0,0000	-0,0066	-0,1226	-0,0248	-0,0657	 0,0022	 0,0423	 0,0022	-0,0533	-0,0526	-0,0007	-1,0344	 0,1153	-0,1139	-0,0044	-0,0847	-0,0847	-0,3577
12.06.2026 10:29:39	-0,1409	-0,1146	-0,0372	 0,0168	-0,0883	-0,1183	-0,0650	 0,0124	 0,0343	-0,0715	-0,0628	-0,0029	-0,0263	-0,0547	 0,0000	-0,0073	-0,0394	-0,0241	-0,0679	 0,0007	 0,0401	 0,0007	-0,0547	-0,0569	-0,0029	-1,0329	 0,1234	-0,1146	 0,0066	-0,0701	-0,0745	-0,3263
12.06.2026 10:29:39	-0,1453	-0,1073	-0,0416	 0,0956	-0,0810	-0,1197	-0,0438	 0,0029	 0,0431	-0,0745	-0,0715	-0,0051	-0,0358	-0,0540	 0,0000	-0,0080	 0,0307	-0,0234	-0,0672	 0,0000	 0,0409	 0,0029	-0,0482	-0,0599	-0,0022	-1,0512	 0,1380	-0,1066	 0,0241	-0,0606	-0,0555	-0,3154
12.06.2026 10:29:39	-0,1504	-0,1015	-0,1007	 0,0905	-0,0781	-0,1124	-0,0248	-0,0073	 0,0292	-0,0715	-0,0584	 0,0000	-0,0482	-0,0518	 0,0000	-0,0051	-0,0533	-0,0226	-0,0613	 0,0029	 0,0423	 0,0022	-0,0504	-0,0569	-0,0015	-1,0431	 0,1460	-0,0956	 0,0431	-0,0555	-0,0431	-0,3015
12.06.2026 10:29:39	-0,1453	-0,0978	-0,0796	 0,1022	-0,0781	-0,1124	-0,0467	 0,0095	-0,0080	-0,0606	-0,0482	 0,0117	-0,0781	-0,0518	 0,0000	-0,0073	-0,0686	-0,0204	-0,0540	 0,0058	 0,0431	 0,0022	-0,0518	-0,0511	 0,0000	-0,9300	 0,1657	-0,0920	 0,0445	-0,0584	-0,0394	-0,3059
12.06.2026 10:29:39	-0,1394	-0,1007	-0,1073	 0,0942	-0,0679	-0,1110	-0,0584	 0,0117	-0,0036	-0,0562	-0,0562	 0,0029	-0,0672	-0,0526	 0,0000	-0,0095	 0,0234	-0,0182	-0,0620	 0,0029	 0,0431	 0,0007	-0,0496	-0,0562	-0,0022	-0,8424	 0,1767	-0,1022	 0,0606	-0,0949	-0,0423	-0,3424
12.06.2026 10:29:39	-0,1365	-0,1088	-0,1314	 0,0577	-0,0642	-0,1146	-0,0613	 0,0022	 0,0168	-0,0540	-0,0577	 0,0007	-0,0482	-0,0511	 0,0000	-0,0036	-0,0095	-0,0212	-0,0650	 0,0007	 0,0416	-0,0022	-0,0504	-0,0562	-0,0051	-0,8314	 0,1635	-0,1117	 0,0715	-0,1110	-0,0438	-0,3409
12.06.2026 10:29:39	-0,1329	-0,1161	-0,0569	 0,0073	-0,0664	-0,1153	-0,0431	 0,0131	 0,0292	-0,0650	-0,0628	 0,0007	-0,0401	-0,0511	 0,0000	-0,0073	-0,0394	-0,0248	-0,0620	 0,0007	 0,0409	-0,0036	-0,0533	-0,0547	-0,0044	-0,7482	 0,1299	-0,1037	 0,0650	-0,1066	-0,0482	-0,3321
12.06.2026 10:29:39	-0,1372	-0,1131	-0,0394	 0,0613	-0,0708	-0,1073	-0,0197	 0,0080	 0,0095	-0,0672	-0,0642	 0,0000	-0,0307	-0,0511	 0,0000	-0,0073	-0,0336	-0,0182	-0,0591	 0,0044	 0,0445	 0,0000	-0,0482	-0,0533	-0,0007	-0,6475	 0,1197	-0,1234	 0,0460	-0,1117	-0,0496	-0,3577
12.06.2026 10:29:39	-0,1482	-0,1183	-0,0467	 0,0526	-0,0825	-0,1058	-0,0547	 0,0095	 0,0044	-0,0701	-0,0584	-0,0029	-0,0409	-0,0533	 0,0000	-0,0044	-0,0504	-0,0190	-0,0613	 0,0029	 0,0431	 0,0000	-0,0504	-0,0533	-0,0015	-0,5986	 0,1299	-0,1153	 0,0299	-0,0971	-0,0555	-0,3672
12.06.2026 10:29:39	-0,1533	-0,1139	-0,0942	 0,0628	-0,0825	-0,1066	-0,0358	 0,0102	 0,0204	-0,0730	-0,0650	-0,0022	-0,0416	-0,0518	 0,0000	-0,0080	-0,0255	-0,0197	-0,0613	 0,0058	 0,0431	-0,0007	-0,0511	-0,0533	-0,0015	-0,5971	 0,1139	-0,0985	 0,0117	-0,0978	-0,0730	-0,3716
12.06.2026 10:29:39	-0,1402	-0,1080	-0,1672	 0,1292	-0,0701	-0,1066	-0,0409	-0,0022	 0,0131	-0,0635	-0,0635	 0,0029	-0,0445	-0,0504	 0,0000	-0,0095	-0,0190	-0,0175	-0,0533	 0,0102	 0,0467	 0,0015	-0,0445	-0,0453	 0,0036	-0,6000	 0,1248	-0,1066	 0,0095	-0,0971	-0,0679	-0,3511
12.06.2026 10:29:39	-0,1329	-0,1110	-0,1803	 0,0752	-0,0693	-0,1110	-0,0255	 0,0088	 0,0073	-0,0650	-0,0547	-0,0058	-0,0431	-0,0511	 0,0000	-0,0109	-0,0438	-0,0190	-0,0584	 0,0066	 0,0438	-0,0007	-0,0474	-0,0467	 0,0029	-0,6307	 0,1329	-0,0949	 0,0328	-0,0766	-0,0533	-0,3161
12.06.2026 10:29:39	-0,1256	-0,1080	-0,1431	 0,0124	-0,0686	-0,1139	-0,0066	 0,0117	 0,0613	-0,0730	-0,0547	 0,0000	-0,0474	-0,0533	 0,0000	-0,0080	-0,1044	-0,0219	-0,0591	 0,0051	 0,0423	-0,0036	-0,0518	-0,0474	 0,0007	-0,6475	 0,1073	-0,0978	 0,0117	-0,0810	-0,0591	-0,3168
12.06.2026 10:29:39	-0,1321	-0,1139	-0,0854	-0,0197	-0,0701	-0,1153	-0,0409	 0,0263	 0,1051	-0,0752	-0,0679	 0,0022	-0,0555	-0,0584	 0,0000	-0,0029	-0,0971	-0,0307	-0,0620	 0,0029	 0,0401	-0,0051	-0,0562	-0,0482	-0,0015	-0,5300	 0,1051	-0,0971	 0,0124	-0,0861	-0,0679	-0,3329
12.06.2026 10:29:39	-0,1314	-0,1015	 0,0197	 0,0438	-0,0635	-0,0993	-0,0445	 0,0255	 0,0387	-0,0723	-0,0620	-0,0058	-0,0307	-0,0511	 0,0000	-0,0088	-0,0124	-0,0175	-0,0584	 0,0080	 0,0445	 0,0000	-0,0474	-0,0431	 0,0044	-0,4577	 0,0964	-0,0869	 0,0212	-0,0934	-0,0752	-0,3373
12.06.2026 10:29:39	-0,1270	-0,0905	-0,0401	 0,0745	-0,0620	-0,0985	-0,0511	 0,0131	 0,0000	-0,0701	-0,0569	-0,0022	-0,0263	-0,0467	 0,0000	-0,0117	-0,0139	-0,0102	-0,0540	 0,0124	 0,0474	 0,0029	-0,0423	-0,0380	 0,0102	-0,4613	 0,0964	-0,0642	 0,0073	-0,1102	-0,0839	-0,3154
12.06.2026 10:29:39	-0,1336	-0,0956	-0,0956	 0,0854	-0,0664	-0,1088	-0,0117	 0,0139	 0,0139	-0,0642	-0,0591	 0,0044	-0,0453	-0,0489	 0,0000	-0,0109	-0,0263	-0,0146	-0,0547	 0,0124	 0,0489	 0,0029	-0,0416	-0,0358	 0,0109	-0,3708	 0,1037	-0,0569	 0,0212	-0,1029	-0,0891	-0,3073
12.06.2026 10:29:39	-0,1277	-0,1015	-0,0401	 0,0920	-0,0672	-0,0993	 0,0066	 0,0073	 0,0044	-0,0555	-0,0606	 0,0058	-0,0453	-0,0467	 0,0000	-0,0124	-0,0102	-0,0095	-0,0504	 0,0139	 0,0518	 0,0036	-0,0401	-0,0350	 0,0131	-0,2803	 0,0993	-0,0555	 0,0277	-0,0869	-0,0839	-0,3154
12.06.2026 10:29:39	-0,1226	-0,1131	-0,1037	 0,0015	-0,0635	-0,1007	-0,0372	 0,0080	 0,0204	-0,0708	-0,0606	 0,0015	-0,0445	-0,0511	 0,0000	-0,0073	-0,1248	-0,0182	-0,0555	 0,0102	 0,0482	 0,0022	-0,0504	-0,0409	 0,0080	-0,2358	 0,0905	-0,0482	 0,0066	-0,0810	-0,1044	-0,3183
12.06.2026 10:29:39	-0,1234	-0,1197	-0,1292	-0,0401	-0,0679	-0,1073	-0,0861	 0,0204	 0,0212	-0,0891	-0,0606	 0,0022	-0,0321	-0,0482	 0,0000	-0,0058	-0,0489	-0,0190	-0,0555	 0,0102	 0,0474	 0,0029	-0,0467	-0,0401	 0,0088	-0,2110	 0,0825	-0,0540	-0,0036	-0,0759	-0,1336	-0,3015
12.06.2026 10:29:39	-0,1380	-0,1270	-0,1153	-0,0307	-0,0701	-0,1102	-0,0131	 0,0168	 0,0058	-0,0847	-0,0693	 0,0015	-0,0358	-0,0474	 0,0000	-0,0095	-0,0073	-0,0241	-0,0555	 0,0095	 0,0460	 0,0007	-0,0474	-0,0423	 0,0058	-0,2248	 0,0810	-0,0372	 0,0000	-0,0496	-0,1343	-0,2730
12.06.2026 10:29:39	-0,1423	-0,1256	-0,0467	 0,0358	-0,0708	-0,1058	-0,0219	 0,0109	 0,0482	-0,0774	-0,0686	 0,0029	-0,0445	-0,0518	 0,0000	-0,0058	-0,1511	-0,0226	-0,0547	 0,0088	 0,0467	 0,0007	-0,0526	-0,0431	 0,0051	-0,2453	 0,0650	-0,0526	-0,0124	-0,0518	-0,1307	-0,2781
12.06.2026 10:29:39	-0,1372	-0,1117	-0,0234	 0,1153	-0,0672	-0,1007	-0,0839	 0,0204	 0,0263	-0,0693	-0,0657	 0,0036	-0,0387	-0,0504	 0,0000	-0,0051	-0,0190	-0,0117	-0,0518	 0,0109	 0,0482	 0,0036	-0,0438	-0,0394	 0,0102	-0,2613	 0,0613	-0,0715	-0,0044	-0,0657	-0,1212	-0,2723
12.06.2026 10:29:39	-0,1321	-0,1102	-0,0876	 0,1343	-0,0620	-0,1015	-0,0438	 0,0073	 0,0336	-0,0642	-0,0664	 0,0015	-0,0365	-0,0496	 0,0000	-0,0051	 0,0139	-0,0197	-0,0555	 0,0109	 0,0489	 0,0051	-0,0423	-0,0372	 0,0102	-0,1584	 0,0818	-0,0701	 0,0241	-0,0774	-0,0861	-0,2810
12.06.2026 10:29:39	-0,1343	-0,1080	-0,1256	 0,0942	-0,0664	-0,1044	-0,0102	-0,0015	 0,0401	-0,0708	-0,0606	 0,0073	-0,0307	-0,0467	 0,0000	-0,0073	 0,0000	-0,0117	-0,0526	 0,0131	 0,0504	 0,0073	-0,0409	-0,0350	 0,0131	-0,0978	 0,0686	-0,0766	 0,0161	-0,0942	-0,0730	-0,2964
12.06.2026 10:29:39	-0,1365	-0,1051	-0,0818	 0,0745	-0,0664	-0,1037	-0,0350	 0,0117	 0,0000	-0,0730	-0,0460	 0,0058	-0,0292	-0,0431	 0,0000	-0,0124	-0,1102	-0,0066	-0,0540	 0,0117	 0,0496	 0,0058	-0,0431	-0,0380	 0,0124	-0,1577	 0,0511	-0,0723	 0,0073	-0,0745	-0,0934	-0,2781
12.06.2026 10:29:39	-0,1299	-0,1029	-0,0365	 0,0905	-0,0708	-0,0956	-0,0715	 0,0073	 0,0073	-0,0737	-0,0489	 0,0058	-0,0321	-0,0467	 0,0000	-0,0036	-0,2292	-0,0088	-0,0518	 0,0139	 0,0518	 0,0095	-0,0431	-0,0350	 0,0153	-0,0839	 0,0664	-0,0737	 0,0102	-0,0664	-0,1044	-0,2723
12.06.2026 10:29:39	-0,1277	-0,1022	-0,0285	 0,0628	-0,0745	-0,0956	-0,0496	 0,0015	 0,0190	-0,0861	-0,0620	 0,0073	-0,0416	-0,0496	 0,0000	 0,0000	-0,0182	-0,0095	-0,0540	 0,0124	 0,0526	 0,0095	-0,0365	-0,0365	 0,0175	 0,0131	 0,1080	-0,0869	 0,0277	-0,0861	-0,0745	-0,2898
12.06.2026 10:29:39	-0,1175	-0,0971	-0,0029	 0,0518	-0,0599	-0,1015	-0,0664	 0,0015	 0,0255	-0,0818	-0,0511	 0,0080	-0,0496	-0,0518	 0,0000	-0,0036	 0,0555	-0,0095	-0,0569	 0,0109	 0,0504	 0,0088	-0,0343	-0,0372	 0,0161	 0,0533	 0,1139	-0,0854	 0,0328	-0,1044	-0,0569	-0,3088
12.06.2026 10:29:39	-0,1153	-0,0949	-0,0131	 0,0693	-0,0547	-0,0964	-0,0343	 0,0022	 0,0051	-0,0620	-0,0489	 0,0058	-0,0489	-0,0489	 0,0000	-0,0066	 0,0270	-0,0088	-0,0547	 0,0124	 0,0511	 0,0102	-0,0321	-0,0365	 0,0161	 0,0569	 0,1000	-0,1022	 0,0299	-0,1212	-0,0533	-0,3205
12.06.2026 10:29:39	-0,1088	-0,1022	-0,0234	 0,1022	-0,0547	-0,0912	-0,0358	 0,0000	-0,0095	-0,0577	-0,0591	 0,0073	-0,0380	-0,0467	 0,0000	-0,0095	 0,0051	-0,0029	-0,0533	 0,0131	 0,0511	 0,0109	-0,0314	-0,0401	 0,0153	 0,0263	 0,0876	-0,1000	 0,0204	-0,1007	-0,0613	-0,2920
12.06.2026 10:29:39	-0,1168	-0,0978	-0,0350	 0,1051	-0,0518	-0,0971	-0,0599	 0,0015	-0,0095	-0,0613	-0,0547	 0,0073	-0,0307	-0,0489	 0,0000	-0,0088	-0,0197	-0,0044	-0,0540	 0,0117	 0,0504	 0,0102	-0,0321	-0,0416	 0,0131	-0,0073	-0,0124	-0,0080	-0,0664	-0,0029	-0,1540	-0,2212
12.06.2026 10:29:39	-0,1256	-0,1037	-0,0460	 0,0861	-0,0569	-0,1000	-0,0219	 0,0036	 0,0051	-0,0635	-0,0533	 0,0036	-0,0234	-0,0482	 0,0000	-0,0073	-0,0109	-0,0080	-0,0562	 0,0109	 0,0496	 0,0095	-0,0336	-0,0416	 0,0117	-0,0277	-0,0255	-0,0007	-0,0788	 0,0153	-0,1701	-0,2153
12.06.2026 10:29:39	-0,1219	-0,1095	-0,0686	 0,0226	-0,0599	-0,1058	-0,0555	 0,0073	 0,0387	-0,0715	-0,0555	 0,0095	-0,0277	-0,0496	 0,0000	-0,0036	-0,0226	-0,0029	-0,0533	 0,0117	 0,0496	 0,0117	-0,0328	-0,0387	 0,0124	 0,0482	 0,0102	-0,0533	-0,0474	-0,0321	-0,1475	-0,2606
12.06.2026 10:29:39	-0,1299	-0,1037	-0,1058	 0,0036	-0,0642	-0,1058	-0,0409	 0,0226	 0,0387	-0,0788	-0,0620	 0,0095	-0,0394	-0,0482	 0,0000	-0,0051	-0,0241	-0,0095	-0,0547	 0,0088	 0,0482	 0,0080	-0,0358	-0,0401	 0,0109	 0,0818	 0,0307	-0,0905	-0,0372	-0,0562	-0,1380	-0,2978
12.06.2026 10:29:39	-0,1314	-0,0993	-0,1613	 0,0255	-0,0613	-0,1066	 0,0066	 0,0219	 0,0088	-0,0737	-0,0599	 0,0153	-0,0453	-0,0445	 0,0000	-0,0066	-0,0277	-0,0139	-0,0511	 0,0124	 0,0482	 0,0088	-0,0380	-0,0380	 0,0095	 0,0810	 0,0869	-0,1110	 0,0073	-0,0635	-0,0759	-0,3029
12.06.2026 10:29:39	-0,1292	-0,0993	-0,1095	 0,0591	-0,0511	-0,1037	-0,0292	 0,0015	 0,0175	-0,0642	-0,0496	 0,0197	-0,0467	-0,0438	 0,0000	-0,0015	-0,0876	-0,0124	-0,0489	 0,0139	 0,0518	 0,0117	-0,0358	-0,0343	 0,0117	 0,1650	 0,0861	-0,0971	 0,0175	-0,0599	-0,0577	-0,3044
12.06.2026 10:29:39	-0,1285	-0,1015	-0,1161	 0,0956	-0,0591	-0,1029	-0,0372	-0,0080	-0,0102	-0,0650	-0,0526	 0,0139	-0,0380	-0,0401	 0,0000	-0,0015	-0,0533	-0,0161	-0,0526	 0,0139	 0,0526	 0,0117	-0,0358	-0,0372	 0,0117	 0,2409	 0,0730	-0,1022	 0,0022	-0,0861	-0,0818	-0,3256
12.06.2026 10:29:39	-0,1277	-0,1044	-0,2161	 0,0234	-0,0766	-0,1219	-0,0336	 0,0109	 0,0000	-0,0774	-0,0591	 0,0036	-0,0453	-0,0438	 0,0000	-0,0066	 0,0022	-0,0109	-0,0591	 0,0102	 0,0482	 0,0088	-0,0365	-0,0416	 0,0088	 0,2832	 0,0745	-0,1029	-0,0095	-0,0876	-0,0869	-0,3431
12.06.2026 10:29:39	-0,1321	-0,1058	-0,0876	 0,0387	-0,0876	-0,1204	-0,0394	 0,0168	 0,0336	-0,0818	-0,0533	-0,0029	-0,0277	-0,0453	 0,0000	-0,0102	-0,0270	-0,0007	-0,0635	 0,0066	 0,0482	 0,0080	-0,0365	-0,0445	 0,0080	 0,2876	 0,0883	-0,1183	 0,0117	-0,0898	-0,0650	-0,3613
12.06.2026 10:29:39	-0,1343	-0,1190	 0,0058	 0,0912	-0,0861	-0,1058	-0,0679	 0,0066	 0,0153	-0,0752	-0,0679	-0,0029	-0,0146	-0,0416	 0,0000	-0,0022	-0,0343	-0,0073	-0,0591	 0,0102	 0,0504	 0,0109	-0,0358	-0,0445	 0,0088	 0,2555	 0,0912	-0,1256	 0,0212	-0,0956	-0,0482	-0,3584
12.06.2026 10:29:39	-0,1219	-0,1124	 0,0197	 0,1131	-0,0431	-0,0985	-0,0526	-0,0036	 0,0212	-0,0686	-0,0650	 0,0066	-0,0328	-0,0467	 0,0000	 0,0007	-0,0307	-0,0080	-0,0555	 0,0117	 0,0518	 0,0146	-0,0321	-0,0387	 0,0146	 0,2066	 0,1110	-0,1102	 0,0175	-0,0825	-0,0380	-0,3613
12.06.2026 10:29:39	-0,1204	-0,0883	-0,0518	 0,0781	-0,0540	-0,1029	-0,0270	-0,0015	 0,0161	-0,0635	-0,0489	 0,0066	-0,0350	-0,0489	 0,0000	 0,0000	-0,0226	-0,0058	-0,0555	 0,0124	 0,0540	 0,0146	-0,0321	-0,0372	 0,0153	 0,1825	 0,1380	-0,1044	 0,0328	-0,0861	-0,0161	-0,3643
12.06.2026 10:29:39	-0,1277	-0,0971	-0,1139	-0,0073	-0,0810	-0,1073	-0,0467	 0,0109	 0,0307	-0,0708	-0,0620	-0,0058	-0,0504	-0,0533	 0,0000	 0,0015	-0,0394	-0,0139	-0,0577	 0,0088	 0,0511	 0,0109	-0,0372	-0,0416	 0,0095	 0,2716	 0,1387	-0,1007	 0,0504	-0,0971	-0,0117	-0,3686
12.06.2026 10:29:39	-0,1197	-0,1058	-0,0285	-0,0015	-0,0482	-0,0993	-0,0358	 0,0139	 0,0248	-0,0766	-0,0562	 0,0007	-0,0613	-0,0540	 0,0000	-0,0029	-0,0657	-0,0139	-0,0569	 0,0073	 0,0489	 0,0088	-0,0401	-0,0409	 0,0066	 0,3358	 0,1489	-0,1110	 0,0562	-0,1080	-0,0080	-0,3898
12.06.2026 10:29:39	-0,1219	-0,1095	-0,0372	-0,0226	-0,0642	-0,0956	-0,0423	 0,0131	 0,0715	-0,0825	-0,0599	-0,0022	-0,0467	-0,0504	 0,0000	-0,0007	-0,0445	-0,0182	-0,0577	 0,0066	 0,0474	 0,0058	-0,0438	-0,0438	 0,0036	 0,3300	 0,1555	-0,1051	 0,0540	-0,0891	-0,0058	-0,3745
12.06.2026 10:29:39	-0,1292	-0,1190	-0,0591	 0,0182	-0,0810	-0,0971	-0,0496	 0,0299	 0,0796	-0,0898	-0,0642	-0,0066	-0,0482	-0,0526	 0,0000	-0,0036	-0,0190	-0,0168	-0,0591	 0,0051	 0,0453	 0,0029	-0,0474	-0,0453	 0,0015	 0,3905	 0,1657	-0,0942	 0,0445	-0,0759	-0,0109	-0,3562
12.06.2026 10:29:39	-0,1285	-0,1204	-0,1044	 0,0380	-0,0591	-0,0985	-0,0226	 0,0328	-0,0029	-0,0796	-0,0613	-0,0022	-0,0380	-0,0474	 0,0000	-0,0095	-0,0212	-0,0139	-0,0577	 0,0073	 0,0467	 0,0029	-0,0474	-0,0431	 0,0022	 0,4519	 0,1606	-0,0905	 0,0212	-0,0832	-0,0226	-0,3665
12.06.2026 10:29:39	-0,1292	-0,1022	-0,1037	 0,0460	-0,0766	-0,0971	-0,0270	 0,0036	 0,0066	-0,0628	-0,0606	-0,0051	-0,0226	-0,0445	 0,0000	-0,0058	-0,0248	-0,0131	-0,0540	 0,0109	 0,0496	 0,0073	-0,0445	-0,0416	 0,0044	 0,4862	 0,1540	-0,0832	 0,0117	-0,0803	-0,0409	-0,3679
12.06.2026 10:29:39	-0,1263	-0,0934	-0,0212	 0,1175	-0,0774	-0,0956	-0,0416	-0,0007	-0,0007	-0,0569	-0,0628	-0,0022	-0,0409	-0,0474	 0,0000	-0,0044	-0,0234	-0,0088	-0,0569	 0,0102	 0,0511	 0,0102	-0,0401	-0,0431	 0,0058	 0,4701	 0,1686	-0,0956	 0,0277	-0,0854	-0,0241	-0,3694
12.06.2026 10:29:39	-0,1329	-0,1051	-0,0044	 0,1336	-0,0606	-0,0964	-0,0533	-0,0029	-0,0029	-0,0635	-0,0533	-0,0029	-0,0365	-0,0482	 0,0000	-0,0036	-0,0401	-0,0139	-0,0599	 0,0073	 0,0504	 0,0088	-0,0409	-0,0453	 0,0051	 0,4321	 0,1752	-0,1015	 0,0409	-0,0956	-0,0044	-0,3672
12.06.2026 10:29:39	-0,1431	-0,1029	-0,0686	 0,0737	-0,0650	-0,1029	-0,0504	 0,0051	 0,0285	-0,0672	-0,0613	-0,0073	-0,0416	-0,0511	 0,0000	-0,0007	-0,0883	-0,0190	-0,0613	 0,0036	 0,0460	 0,0058	-0,0474	-0,0489	 0,0015	 0,4022	 0,1942	-0,1037	 0,0562	-0,1015	 0,0080	-0,3708
12.06.2026 10:29:39	-0,1416	-0,1088	-0,1489	 0,0073	-0,0745	-0,1168	 0,0066	 0,0321	 0,0453	-0,0730	-0,0701	-0,0161	-0,0372	-0,0533	 0,0000	-0,0029	-0,0934	-0,0248	-0,0672	-0,0015	 0,0416	 0,0007	-0,0533	-0,0555	-0,0022	 0,3701	 0,2000	-0,1190	 0,0766	-0,1270	 0,0270	-0,3920
12.06.2026 10:29:39	-0,1343	-0,1044	-0,1095	 0,0577	-0,0730	-0,1102	-0,0007	 0,0212	 0,0285	-0,0723	-0,0467	-0,0095	-0,0263	-0,0511	 0,0000	-0,0015	-0,0781	-0,0197	-0,0620	 0,0029	 0,0453	 0,0044	-0,0474	-0,0482	 0,0029	 0,4511	 0,1818	-0,1329	 0,0701	-0,1394	 0,0328	-0,4088
12.06.2026 10:29:39	-0,1168	-0,0912	-0,0029	 0,1066	-0,0635	-0,0934	-0,0679	 0,0044	 0,0212	-0,0613	-0,0569	-0,0007	-0,0445	-0,0526	 0,0000	 0,0022	-0,0197	-0,0124	-0,0562	 0,0080	 0,0504	 0,0124	-0,0380	-0,0394	 0,0109	 0,5081	 0,1774	-0,1380	 0,0562	-0,1402	 0,0175	-0,4205
12.06.2026 10:29:39	-0,1044	-0,1029	 0,0117	 0,0788	-0,0547	-0,0905	-0,0781	 0,0051	 0,0270	-0,0781	-0,0650	 0,0058	-0,0474	-0,0504	 0,0000	 0,0051	-0,0146	-0,0161	-0,0555	 0,0066	 0,0504	 0,0124	-0,0372	-0,0372	 0,0095	 0,4854	 0,1701	-0,1372	 0,0285	-0,1358	-0,0109	-0,4015
12.06.2026 10:29:39	-0,1131	-0,1168	-0,0730	 0,0044	-0,0547	-0,0934	-0,0474	 0,0277	 0,0482	-0,0839	-0,0693	 0,0066	-0,0394	-0,0496	 0,0000	 0,0058	 0,0000	-0,0226	-0,0591	 0,0044	 0,0467	 0,0058	-0,0445	-0,0401	 0,0036	 0,5489	 0,1737	-0,1307	 0,0358	-0,1117	-0,0066	-0,3759
12.06.2026 10:29:39	-0,1219	-0,1022	-0,1044	 0,0226	-0,0606	-0,0956	-0,0467	 0,0277	 0,0358	-0,0650	-0,0555	-0,0036	-0,0299	-0,0489	 0,0000	 0,0007	-0,0613	-0,0241	-0,0584	 0,0058	 0,0453	 0,0044	-0,0489	-0,0409	 0,0015	 0,6176	 0,1715	-0,1110	 0,0358	-0,0956	-0,0146	-0,3737
12.06.2026 10:29:39	-0,1073	-0,0927	-0,0832	 0,0431	-0,0526	-0,0934	-0,0343	 0,0036	-0,0124	-0,0511	-0,0365	 0,0080	-0,0387	-0,0467	 0,0000	 0,0007	-0,1358	-0,0204	-0,0547	 0,0088	 0,0474	 0,0073	-0,0453	-0,0358	 0,0044	 0,6533	 0,1723	-0,1073	 0,0270	-0,0978	-0,0219	-0,3869
12.06.2026 10:29:39	-0,1110	-0,1080	-0,1745	-0,0562	-0,0672	-0,0949	-0,0036	 0,0248	 0,0248	-0,0737	-0,0555	 0,0131	-0,0380	-0,0474	 0,0000	 0,0000	-0,0453	-0,0336	-0,0562	 0,0051	 0,0445	 0,0036	-0,0474	-0,0394	 0,0022	 0,6541	 0,1694	-0,1029	 0,0277	-0,0854	-0,0182	-0,3752
12.06.2026 10:29:39	-0,1380	-0,1256	-0,2139	-0,0686	-0,0708	-0,1117	-0,0153	 0,0526	 0,0861	-0,0978	-0,0810	-0,0131	-0,0416	-0,0533	 0,0000	-0,0029	-0,0285	-0,0365	-0,0679	-0,0036	 0,0372	-0,0007	-0,0526	-0,0504	-0,0015	 0,6161	 0,2044	-0,1336	 0,0606	-0,1197	 0,0219	-0,3898
12.06.2026 10:29:39	-0,1358	-0,1095	-0,0635	 0,0504	-0,0650	-0,1051	-0,0358	 0,0219	 0,0847	-0,0774	-0,0650	-0,0234	-0,0416	-0,0540	 0,0000	 0,0000	-0,0175	-0,0161	-0,0701	-0,0015	 0,0431	 0,0036	-0,0431	-0,0489	 0,0036	 0,5833	 0,2891	-0,2102	 0,1307	-0,2037	 0,0971	-0,4570
12.06.2026 10:29:39	-0,1299	-0,0920	-0,0124	 0,0759	-0,0672	-0,1022	-0,0650	 0,0044	 0,0431	-0,0730	-0,0467	-0,0139	-0,0372	-0,0526	 0,0000	 0,0073	 0,0182	-0,0117	-0,0657	 0,0036	 0,0482	 0,0102	-0,0358	-0,0423	 0,0109	 0,5365	 0,2832	-0,1745	 0,1131	-0,1803	 0,0912	-0,4161
12.06.2026 10:29:39	-0,1380	-0,1117	-0,0051	 0,0927	-0,0796	-0,1168	-0,0453	 0,0212	 0,0190	-0,0745	-0,0489	-0,0066	-0,0401	-0,0518	 0,0000	 0,0029	-0,0131	-0,0146	-0,0642	 0,0051	 0,0489	 0,0109	-0,0343	-0,0394	 0,0124	 0,5971	 0,2526	-0,1387	 0,0927	-0,1562	 0,0657	-0,3883
12.06.2026 10:29:39	-0,1569	-0,1175	 0,0241	 0,1489	-0,0971	-0,1270	-0,0650	-0,0080	 0,0109	-0,0672	-0,0518	-0,0044	-0,0394	-0,0489	 0,0000	 0,0022	 0,0109	-0,0102	-0,0562	 0,0124	 0,0562	 0,0168	-0,0292	-0,0336	 0,0197	 0,6679	 0,2219	-0,1292	 0,0715	-0,1511	 0,0336	-0,3832
12.06.2026 10:29:39	-0,1555	-0,1080	-0,0255	 0,1299	-0,0745	-0,1234	-0,0613	-0,0029	-0,0124	-0,0650	-0,0599	-0,0022	-0,0460	-0,0467	 0,0000	 0,0066	-0,0511	-0,0088	-0,0547	 0,0124	 0,0569	 0,0168	-0,0328	-0,0307	 0,0226	 0,6636	 0,1891	-0,1007	 0,0343	-0,1124	 0,0175	-0,3227
12.06.2026 10:29:39	-0,1168	-0,0978	-0,1212	 0,0715	-0,0504	-0,0971	-0,0088	 0,0204	 0,0073	-0,0701	-0,0526	 0,0015	-0,0350	-0,0431	 0,0000	 0,0058	-0,2073	-0,0117	-0,0584	 0,0095	 0,0518	 0,0095	-0,0416	-0,0343	 0,0153	 0,7278	 0,1876	-0,0971	 0,0328	-0,0788	 0,0263	-0,2898
12.06.2026 10:29:39	-0,0971	-0,1007	-0,1526	 0,0182	-0,0387	-0,0730	 0,0088	 0,0336	 0,0803	-0,0774	-0,0635	-0,0015	-0,0263	-0,0438	 0,0000	 0,0029	-0,0117	-0,0131	-0,0620	 0,0066	 0,0467	 0,0066	-0,0401	-0,0409	 0,0102	 0,8066	 0,1898	-0,0847	 0,0394	-0,0584	 0,0234	-0,2657
12.06.2026 10:29:39	-0,0905	-0,0964	 0,0088	 0,0825	-0,0328	-0,0547	-0,0102	 0,0270	 0,0270	-0,0591	-0,0518	 0,0080	-0,0190	-0,0423	 0,0000	 0,0015	 0,0839	-0,0058	-0,0547	 0,0117	 0,0511	 0,0109	-0,0307	-0,0358	 0,0168	 0,8409	 0,1869	-0,0737	 0,0453	-0,0599	 0,0168	-0,2635
12.06.2026 10:29:39	-0,0876	-0,0839	 0,0613	 0,1518	-0,0263	-0,0460	-0,0504	 0,0080	-0,0146	-0,0460	-0,0350	 0,0168	-0,0241	-0,0394	 0,0000	 0,0015	-0,0029	 0,0000	-0,0474	 0,0161	 0,0555	 0,0153	-0,0277	-0,0314	 0,0226	 0,8439	 0,1730	-0,0613	 0,0591	-0,0526	 0,0117	-0,2723
12.06.2026 10:29:39	-0,0847	-0,0934	 0,0453	 0,1467	-0,0285	-0,0489	-0,0460	 0,0168	 0,0117	-0,0526	-0,0540	 0,0146	-0,0190	-0,0409	 0,0000	 0,0007	 0,0044	 0,0015	-0,0518	 0,0117	 0,0518	 0,0139	-0,0292	-0,0358	 0,0182	 0,8227	 0,1745	-0,0518	 0,0701	-0,0409	 0,0255	-0,2555
12.06.2026 10:29:39	-0,0825	-0,1066	 0,0058	 0,1044	-0,0365	-0,0613	-0,0095	 0,0204	 0,0161	-0,0657	-0,0591	 0,0124	-0,0109	-0,0431	 0,0000	 0,0007	-0,0182	 0,0000	-0,0555	 0,0095	 0,0504	 0,0117	-0,0336	-0,0387	 0,0161	 0,7833	 0,1701	-0,0496	 0,0547	-0,0365	 0,0307	-0,2314
12.06.2026 10:29:39	-0,0876	-0,1095	-0,0861	 0,0781	-0,0460	-0,0686	-0,0022	 0,0321	 0,0307	-0,0715	-0,0577	 0,0088	-0,0073	-0,0409	 0,0000	 0,0000	-0,0168	-0,0036	-0,0540	 0,0102	 0,0482	 0,0095	-0,0358	-0,0387	 0,0161	 0,7584	 0,1584	-0,0460	 0,0584	-0,0409	 0,0307	-0,2197
12.06.2026 10:29:39	-0,0985	-0,1095	-0,0029	 0,0635	-0,0504	-0,0642	-0,0073	 0,0307	 0,0453	-0,0774	-0,0562	 0,0109	 0,0000	-0,0394	 0,0000	-0,0015	-0,0219	-0,0029	-0,0504	 0,0124	 0,0504	 0,0109	-0,0358	-0,0380	 0,0168	 0,8307	 0,1708	-0,0533	 0,0788	-0,0394	 0,0182	-0,2365
12.06.2026 10:29:39	-0,0956	-0,1190	-0,0182	 0,0000	-0,0285	-0,0599	-0,0190	 0,0365	 0,0511	-0,0876	-0,0664	 0,0117	-0,0175	-0,0416	 0,0000	 0,0000	-0,0577	-0,0051	-0,0533	 0,0109	 0,0489	 0,0095	-0,0409	-0,0401	 0,0131	 0,8986	 0,1715	-0,0613	 0,0620	-0,0438	-0,0029	-0,2497
12.06.2026 10:29:39	-0,0891	-0,1146	-0,0774	-0,0051	-0,0467	-0,0511	-0,0153	 0,0365	 0,0438	-0,0905	-0,0606	 0,0131	-0,0241	-0,0394	 0,0000	 0,0000	-0,0423	-0,0044	-0,0511	 0,0095	 0,0496	 0,0088	-0,0401	-0,0401	 0,0109	 0,8833	 0,1496	-0,0423	 0,0606	-0,0190	-0,0066	-0,2161
12.06.2026 10:29:39	-0,0774	-0,0971	-0,0182	 0,0394	-0,0401	-0,0321	 0,0015	 0,0219	 0,0577	-0,0818	-0,0511	 0,0219	-0,0270	-0,0365	 0,0000	 0,0007	-0,0007	 0,0022	-0,0431	 0,0131	 0,0547	 0,0124	-0,0321	-0,0350	 0,0139	 0,9373	 0,1409	-0,0299	 0,0759	 0,0015	-0,0015	-0,1956
12.06.2026 10:29:39	-0,0569	-0,1037	 0,0701	 0,0934	 0,0029	-0,0161	-0,0088	 0,0292	 0,0723	-0,0796	-0,0533	 0,0226	-0,0146	-0,0358	 0,0000	 0,0015	-0,0139	-0,0029	-0,0467	 0,0131	 0,0518	 0,0095	-0,0372	-0,0380	 0,0124	 1,0191	 0,1438	-0,0234	 0,0818	-0,0073	 0,0153	-0,2000
12.06.2026 10:29:39	-0,0555	-0,1197	 0,0883	 0,1569	-0,0058	-0,0168	-0,0066	 0,0270	 0,0219	-0,0818	-0,0613	 0,0212	 0,0051	-0,0328	 0,0000	-0,0015	-0,0453	-0,0073	-0,0474	 0,0131	 0,0504	 0,0073	-0,0409	-0,0416	 0,0102	 1,0512	 0,1489	-0,0387	 0,0905	-0,0044	 0,0212	-0,2241
12.06.2026 10:29:39	-0,0606	-0,1117	 0,0416	 0,1518	-0,0058	-0,0219	-0,0197	 0,0248	-0,0080	-0,0810	-0,0679	 0,0255	 0,0255	-0,0292	 0,0000	-0,0022	-0,0387	-0,0029	-0,0438	 0,0146	 0,0504	 0,0080	-0,0394	-0,0409	 0,0095	 1,0570	 0,1548	-0,0526	 0,0847	-0,0029	 0,0117	-0,2409
12.06.2026 10:29:39	-0,0613	-0,1117	-0,0248	 0,1131	-0,0255	-0,0270	-0,0650	 0,0270	 0,0197	-0,0876	-0,0569	 0,0234	 0,0292	-0,0285	 0,0000	-0,0051	-0,0891	-0,0044	-0,0431	 0,0139	 0,0474	 0,0044	-0,0423	-0,0438	 0,0051	 0,9979	 0,1511	-0,0307	 0,0861	 0,0058	 0,0190	-0,2153
12.06.2026 10:29:39	-0,0620	-0,1387	-0,1569	 0,0175	-0,0372	-0,0409	 0,0102	 0,0533	 0,0248	-0,1117	-0,0759	 0,0212	-0,0066	-0,0336	 0,0000	-0,0066	-0,1110	-0,0161	-0,0460	 0,0088	 0,0416	-0,0022	-0,0526	-0,0489	-0,0007	 0,9643	 0,1475	-0,0277	 0,0737	-0,0007	 0,0328	-0,2219
12.06.2026 10:29:39	-0,0650	-0,1416	-0,0555	-0,0058	-0,0131	-0,0401	 0,0672	 0,0482	 0,0891	-0,1248	-0,0949	 0,0161	-0,0270	-0,0365	 0,0000	-0,0058	-0,0949	-0,0212	-0,0474	 0,0073	 0,0394	-0,0022	-0,0569	-0,0489	-0,0036	 0,9278	 0,1380	-0,0474	 0,0453	-0,0241	 0,0277	-0,2402
12.06.2026 10:29:39	-0,0693	-0,1299	 0,0066	 0,0095	-0,0066	-0,0307	 0,0314	 0,0409	 0,0642	-0,1095	-0,0891	 0,0153	-0,0190	-0,0328	 0,0000	-0,0088	-0,1628	-0,0175	-0,0453	 0,0095	 0,0409	-0,0022	-0,0569	-0,0482	-0,0044	 0,9680	 0,1234	-0,0533	 0,0321	-0,0409	 0,0226	-0,2460
12.06.2026 10:29:39	-0,0730	-0,1285	-0,0985	-0,0226	-0,0204	-0,0299	 0,0255	 0,0693	 0,0131	-0,1153	-0,0839	 0,0073	-0,0117	-0,0321	 0,0000	-0,0102	-0,0774	-0,0226	-0,0511	 0,0051	 0,0387	-0,0073	-0,0606	-0,0526	-0,0109	 1,0658	 0,1241	-0,0504	 0,0438	-0,0489	 0,0314	-0,2613
12.06.2026 10:29:39	-0,0591	-0,1204	-0,0175	 0,0679	-0,0073	-0,0190	 0,0431	 0,0343	 0,0109	-0,1015	-0,0657	 0,0182	-0,0022	-0,0270	 0,0000	-0,0095	 0,0044	-0,0168	-0,0453	 0,0124	 0,0438	-0,0015	-0,0511	-0,0445	-0,0029	 1,0672	 0,1139	-0,0591	 0,0423	-0,0540	 0,0234	-0,2686
12.06.2026 10:29:39	-0,0518	-0,1088	 0,0416	 0,1256	-0,0102	-0,0073	 0,0153	 0,0248	 0,0234	-0,0898	-0,0540	 0,0292	 0,0161	-0,0219	 0,0000	-0,0124	 0,0212	-0,0088	-0,0358	 0,0190	 0,0489	 0,0007	-0,0431	-0,0343	 0,0044	 1,1227	 0,1117	-0,0591	 0,0372	-0,0620	 0,0321	-0,2672
12.06.2026 10:29:39	-0,0555	-0,0993	-0,0058	 0,1372	-0,0241	-0,0073	-0,0146	 0,0292	 0,0474	-0,0854	-0,0474	 0,0496	 0,0146	-0,0263	 0,0000	-0,0102	-0,0044	-0,0109	-0,0285	 0,0190	 0,0467	 0,0000	-0,0445	-0,0299	 0,0051	 1,1928	 0,1212	-0,0635	 0,0496	-0,0599	 0,0292	-0,2635
12.06.2026 10:29:39	-0,0562	-0,0971	 0,0234	 0,1628	-0,0007	-0,0102	-0,0022	 0,0248	 0,0182	-0,0781	-0,0460	 0,0723	 0,0051	-0,0285	 0,0000	-0,0044	-0,0431	-0,0175	-0,0248	 0,0197	 0,0482	 0,0058	-0,0423	-0,0263	 0,0102	 1,2191	 0,1102	-0,0715	 0,0511	-0,0672	 0,0022	-0,2664
12.06.2026 10:29:39	-0,0664	-0,1277	 0,1015	 0,0891	-0,0175	-0,0102	-0,0102	 0,0314	 0,0051	-0,0964	-0,0752	 0,0394	 0,0066	-0,0277	 0,0000	-0,0044	-0,0124	-0,0263	-0,0307	 0,0175	 0,0504	 0,0051	-0,0394	-0,0299	 0,0131	 1,2198	 0,1219	-0,0672	 0,0496	-0,0693	-0,0036	-0,2708
12.06.2026 10:29:39	-0,0679	-0,1518	 0,1190	 0,0482	-0,0124	-0,0168	 0,0058	 0,0343	 0,0153	-0,0978	-0,0934	 0,0161	 0,0051	-0,0321	 0,0000	-0,0066	-0,0489	-0,0175	-0,0467	 0,0102	 0,0467	 0,0036	-0,0401	-0,0416	 0,0088	 1,1811	 0,1394	-0,0547	 0,0358	-0,0591	 0,0000	-0,2504
12.06.2026 10:29:39	-0,0723	-0,1453	 0,0606	 0,0737	-0,0088	-0,0204	-0,0453	 0,0343	 0,0234	-0,0964	-0,1058	-0,0058	 0,0350	-0,0285	 0,0000	-0,0036	-0,0051	 0,0036	-0,0562	 0,0051	 0,0445	 0,0051	-0,0380	-0,0518	 0,0015	 1,1380	 0,1336	-0,0358	 0,0212	-0,0482	-0,0036	-0,2226
12.06.2026 10:29:39	-0,0701	-0,1365	 0,0482	 0,0445	-0,0219	-0,0161	 0,0190	 0,0365	 0,0292	-0,0971	-0,0869	-0,0022	 0,0241	-0,0277	 0,0000	-0,0051	-0,0474	 0,0000	-0,0518	 0,0080	 0,0453	 0,0029	-0,0394	-0,0474	 0,0015	 1,1081	 0,1277	-0,0474	 0,0153	-0,0606	-0,0102	-0,2299
12.06.2026 10:29:39	-0,0613	-0,1299	-0,0803	-0,0015	-0,0212	-0,0328	-0,0204	 0,0453	 0,0869	-0,1095	-0,0504	 0,0095	-0,0073	-0,0336	 0,0000	-0,0051	-0,1606	-0,0168	-0,0533	 0,0066	 0,0438	 0,0007	-0,0453	-0,0467	 0,0000	 1,1818	 0,1329	-0,0657	 0,0285	-0,0759	-0,0095	-0,2716
12.06.2026 10:29:39	-0,0708	-0,1321	-0,2511	-0,0861	-0,0277	-0,0401	-0,0058	 0,0518	 0,0971	-0,1146	-0,0672	 0,0058	-0,0197	-0,0307	 0,0000	-0,0051	-0,0620	-0,0219	-0,0518	 0,0051	 0,0416	 0,0000	-0,0431	-0,0489	-0,0036	 1,2410	 0,1343	-0,0474	 0,0380	-0,0547	-0,0248	-0,2832
12.06.2026 10:29:39	-0,0613	-0,1241	-0,0299	-0,0307	-0,0197	-0,0190	 0,0818	 0,0577	 0,0679	-0,1183	-0,0693	 0,0117	-0,0102	-0,0299	 0,0000	-0,0051	-0,0117	-0,0109	-0,0489	 0,0080	 0,0445	 0,0015	-0,0438	-0,0460	 0,0000	 1,2256	 0,1394	-0,0321	 0,0416	-0,0526	-0,0175	-0,2518
12.06.2026 10:29:39	-0,0540	-0,1168	 0,1423	 0,1197	-0,0139	-0,0168	-0,0153	 0,0394	 0,0489	-0,1088	-0,0766	 0,0095	 0,0036	-0,0307	 0,0000	-0,0029	-0,0124	-0,0029	-0,0518	 0,0095	 0,0460	 0,0036	-0,0460	-0,0431	 0,0007	 1,2928	 0,1460	-0,0350	 0,0401	-0,0635	-0,0124	-0,2351
12.06.2026 10:29:39	-0,0547	-0,1226	 0,0387	 0,1080	-0,0248	-0,0153	 0,0146	 0,0248	 0,0314	-0,0956	-0,0774	 0,0095	-0,0102	-0,0321	 0,0000	-0,0044	-0,0095	-0,0073	-0,0496	 0,0095	 0,0460	 0,0036	-0,0431	-0,0401	 0,0015	 1,3183	 0,1131	-0,0299	 0,0226	-0,0547	-0,0321	-0,2285
12.06.2026 10:29:39	-0,0453	-0,1168	 0,0153	 0,1226	-0,0124	-0,0073	 0,0095	 0,0248	-0,0153	-0,0964	-0,0555	 0,0168	-0,0175	-0,0336	 0,0000	-0,0088	-0,0146	-0,0022	-0,0445	 0,0124	 0,0482	 0,0066	-0,0372	-0,0387	 0,0044	 1,3527	 0,0839	-0,0453	 0,0277	-0,0642	-0,0372	-0,2533
12.06.2026 10:29:39	-0,0496	-0,1161	 0,0781	 0,1796	 0,0000	-0,0058	-0,0139	 0,0219	-0,0277	-0,0869	-0,0599	 0,0212	-0,0204	-0,0336	 0,0000	-0,0066	-0,0241	-0,0022	-0,0445	 0,0124	 0,0474	 0,0066	-0,0372	-0,0387	 0,0029	 1,3921	 0,0891	-0,0752	 0,0292	-0,0839	-0,0394	-0,2847
12.06.2026 10:29:39	-0,0664	-0,1183	 0,1394	 0,1869	-0,0182	-0,0124	 0,0007	 0,0168	-0,0095	-0,0788	-0,0620	 0,0153	-0,0022	-0,0321	 0,0000	-0,0051	-0,0387	-0,0036	-0,0460	 0,0139	 0,0489	 0,0066	-0,0401	-0,0409	 0,0029	 1,3205	 0,0883	-0,0708	 0,0409	-0,0876	-0,0277	-0,2672
12.06.2026 10:29:39	-0,0650	-0,1102	 0,0766	 0,1475	-0,0124	-0,0146	-0,0146	 0,0204	 0,0029	-0,0861	-0,0657	 0,0153	 0,0007	-0,0307	 0,0000	-0,0058	-0,0343	-0,0051	-0,0474	 0,0139	 0,0489	 0,0058	-0,0409	-0,0423	 0,0022	 1,2585	 0,0876	-0,0635	 0,0511	-0,0730	-0,0146	-0,2497
12.06.2026 10:29:39	-0,0701	-0,1183	-0,0343	 0,0445	-0,0182	-0,0255	 0,0336	 0,0416	 0,0255	-0,1007	-0,0693	 0,0088	-0,0080	-0,0328	 0,0000	-0,0073	-0,0438	-0,0168	-0,0526	 0,0088	 0,0438	 0,0007	-0,0467	-0,0474	-0,0015	 1,2373	 0,0876	-0,0679	 0,0387	-0,0701	-0,0161	-0,2380
12.06.2026 10:29:39	-0,0723	-0,1277	-0,0832	-0,0007	-0,0226	-0,0423	-0,0022	 0,0489	 0,0401	-0,0942	-0,0752	 0,0073	-0,0102	-0,0350	 0,0000	-0,0073	-0,0409	-0,0146	-0,0547	 0,0073	 0,0416	 0,0000	-0,0489	-0,0467	-0,0029	 1,3570	 0,0978	-0,0547	 0,0467	-0,0679	-0,0095	-0,2307
12.06.2026 10:29:39	-0,0613	-0,1314	-0,1153	-0,0431	-0,0321	-0,0314	 0,0131	 0,0387	 0,0533	-0,1212	-0,0745	 0,0139	 0,0080	-0,0321	 0,0000	-0,0058	-0,1548	-0,0066	-0,0526	 0,0080	 0,0438	 0,0007	-0,0467	-0,0438	-0,0022	 1,4103	 0,0876	-0,0591	 0,0387	-0,0650	-0,0241	-0,2613
12.06.2026 10:29:39	-0,0715	-0,1314	 0,0000	-0,0715	-0,0307	-0,0328	-0,0255	 0,0394	 0,0774	-0,1321	-0,0745	 0,0117	 0,0204	-0,0321	 0,0000	-0,0007	-0,1263	-0,0095	-0,0555	 0,0088	 0,0431	 0,0007	-0,0489	-0,0453	-0,0022	 1,4103	 0,0686	-0,0774	 0,0387	-0,0854	-0,0263	-0,2723
12.06.2026 10:29:39	-0,0715	-0,1285	 0,0285	 0,0131	-0,0095	-0,0372	-0,0737	 0,0321	 0,0985	-0,1219	-0,0839	 0,0124	 0,0066	-0,0343	 0,0000	 0,0000	-0,0839	-0,0102	-0,0562	 0,0073	 0,0438	 0,0007	-0,0489	-0,0453	-0,0022	 1,4220	 0,0832	-0,0861	 0,0628	-0,0832	-0,0095	-0,2686
12.06.2026 10:29:39	-0,0664	-0,1256	-0,0431	 0,1219	-0,0051	-0,0307	 0,0606	 0,0314	 0,0409	-0,1146	-0,0796	 0,0117	-0,0109	-0,0328	 0,0000	-0,0066	-0,1029	-0,0117	-0,0533	 0,0080	 0,0453	 0,0022	-0,0474	-0,0467	-0,0029	 1,3811	 0,0971	-0,0883	 0,0606	-0,0825	-0,0161	-0,2767
12.06.2026 10:29:39	-0,0540	-0,1241	 0,0453	 0,1672	-0,0131	-0,0219	 0,0146	 0,0285	-0,0365	-0,0839	-0,0730	 0,0109	-0,0015	-0,0285	 0,0000	-0,0124	 0,0328	-0,0168	-0,0496	 0,0124	 0,0474	 0,0044	-0,0423	-0,0445	-0,0007	 1,4862	 0,1073	-0,0781	 0,0555	-0,0679	-0,0088	-0,2621
12.06.2026 10:29:39	-0,0540	-0,1292	 0,0788	 0,1183	-0,0285	-0,0197	-0,0190	 0,0212	-0,0153	-0,0818	-0,0810	 0,0080	-0,0007	-0,0292	 0,0000	-0,0124	 0,0321	-0,0197	-0,0467	 0,0131	 0,0467	 0,0044	-0,0431	-0,0474	-0,0022	 1,5220	 0,1044	-0,0759	 0,0628	-0,0460	-0,0051	-0,2562
12.06.2026 10:29:39	-0,0591	-0,1307	 0,0073	 0,0985	-0,0248	-0,0292	 0,0022	 0,0255	-0,0088	-0,0927	-0,0701	 0,0088	-0,0139	-0,0328	 0,0000	-0,0117	-0,0847	-0,0146	-0,0504	 0,0095	 0,0431	 0,0029	-0,0489	-0,0489	-0,0044	 1,4921	 0,1029	-0,0861	 0,0737	-0,0431	-0,0066	-0,2453
12.06.2026 10:29:39	-0,0642	-0,1329	-0,0285	 0,0642	-0,0394	-0,0328	-0,0234	 0,0358	 0,0263	-0,1007	-0,0730	 0,0022	-0,0168	-0,0350	 0,0000	-0,0073	-0,1256	-0,0241	-0,0569	 0,0044	 0,0409	-0,0007	-0,0569	-0,0547	-0,0102	 1,4680	 0,1088	-0,0876	 0,0737	-0,0299	 0,0015	-0,2241
12.06.2026 10:29:39	-0,0920	-0,1307	-0,0613	 0,0226	-0,0474	-0,0394	-0,0511	 0,0511	 0,0190	-0,1080	-0,0927	 0,0007	-0,0321	-0,0401	 0,0000	-0,0029	-0,0321	-0,0358	-0,0613	 0,0007	 0,0380	-0,0044	-0,0577	-0,0628	-0,0182	 1,4330	 0,1058	-0,0832	 0,0686	-0,0423	 0,0197	-0,2314
12.06.2026 10:29:39	-0,0993	-0,1292	-0,0226	 0,0657	-0,0511	-0,0423	-0,0270	 0,0423	 0,0066	-0,1015	-0,0876	 0,0029	-0,0307	-0,0416	 0,0000	-0,0066	 0,0285	-0,0336	-0,0599	 0,0007	 0,0401	-0,0015	-0,0533	-0,0584	-0,0146	 1,5096	 0,0978	-0,0781	 0,0679	-0,0445	 0,0131	-0,2431
12.06.2026 10:29:39	-0,0869	-0,1307	 0,0496	 0,0526	-0,0314	-0,0372	 0,0255	 0,0270	 0,0511	-0,1088	-0,0774	-0,0015	-0,0307	-0,0416	 0,0000	-0,0073	-0,0854	-0,0285	-0,0606	 0,0029	 0,0438	-0,0022	-0,0577	-0,0555	-0,0117	 1,5592	 0,1051	-0,0971	 0,0715	-0,0496	-0,0044	-0,2657
12.06.2026 10:29:39	-0,0883	-0,1365	-0,0650	-0,0474	-0,0372	-0,0380	 0,0467	 0,0445	-0,0029	-0,1168	-0,0839	 0,0015	-0,0139	-0,0328	 0,0000	-0,0131	-0,0818	-0,0226	-0,0591	 0,0044	 0,0423	-0,0044	-0,0606	-0,0562	-0,0139	 1,5249	 0,1015	-0,0985	 0,0650	-0,0511	 0,0095	-0,2504
12.06.2026 10:29:39	-0,0759	-0,1423	-0,1847	 0,0263	-0,0380	-0,0358	 0,0489	 0,0358	 0,0467	-0,1073	-0,0854	 0,0022	-0,0124	-0,0314	 0,0000	-0,0058	 0,0015	-0,0219	-0,0569	 0,0058	 0,0431	 0,0000	-0,0540	-0,0526	-0,0088	 1,5169	 0,0861	-0,0730	 0,0642	-0,0321	 0,0095	-0,2175
12.06.2026 10:29:39	-0,0438	-0,1314	-0,0088	 0,1438	-0,0029	-0,0190	-0,0117	 0,0277	 0,0460	-0,1080	-0,0686	 0,0117	-0,0044	-0,0336	 0,0000	-0,0044	-0,0204	-0,0109	-0,0504	 0,0109	 0,0474	 0,0044	-0,0460	-0,0467	-0,0007	 1,5819	 0,1022	-0,0818	 0,0832	-0,0547	 0,0182	-0,2343
12.06.2026 10:29:39	-0,0431	-0,1256	 0,1694	 0,1219	-0,0073	-0,0066	-0,0139	 0,0336	 0,0204	-0,1080	-0,0715	 0,0131	 0,0102	-0,0285	 0,0000	-0,0073	-0,0336	-0,0102	-0,0474	 0,0124	 0,0482	 0,0036	-0,0453	-0,0467	-0,0007	 1,6176	 0,1000	-0,0591	 0,0657	-0,0584	 0,0117	-0,2190
12.06.2026 10:29:39	-0,0518	-0,1248	 0,0693	 0,0861	-0,0073	-0,0146	 0,0139	 0,0226	 0,0248	-0,1095	-0,0796	 0,0139	 0,0022	-0,0285	 0,0000	-0,0007	-0,0146	-0,0146	-0,0474	 0,0117	 0,0496	 0,0066	-0,0423	-0,0460	 0,0000	 1,5585	 0,0788	-0,0321	 0,0445	-0,0467	-0,0029	-0,1891
12.06.2026 10:29:39	-0,0504	-0,1292	-0,0401	 0,0117	-0,0139	-0,0445	-0,0036	 0,0423	 0,0599	-0,1277	-0,0774	 0,0131	-0,0161	-0,0321	 0,0000	-0,0036	-0,0416	-0,0153	-0,0526	 0,0073	 0,0438	 0,0022	-0,0474	-0,0511	-0,0029	 1,5184	 0,0102	 0,0234	-0,0044	 0,0044	-0,0504	-0,1321
12.06.2026 10:29:39	-0,0533	-0,1380	-0,0168	 0,0562	-0,0190	-0,0445	 0,0226	 0,0474	 0,0796	-0,1270	-0,0745	 0,0080	-0,0343	-0,0350	 0,0000	-0,0066	-0,0971	-0,0168	-0,0569	 0,0051	 0,0416	 0,0000	-0,0518	-0,0540	-0,0036	 1,4906	-0,0234	 0,0482	-0,0175	 0,0336	-0,0693	-0,0912
12.06.2026 10:29:39	-0,0460	-0,1256	 0,0620	 0,1380	-0,0044	-0,0197	-0,0007	 0,0182	-0,0007	-0,1000	-0,0642	 0,0234	-0,0073	-0,0328	 0,0000	-0,0051	-0,0401	-0,0022	-0,0453	 0,0139	 0,0496	 0,0102	-0,0365	-0,0416	 0,0102	 1,4519	 0,0248	 0,0000	 0,0146	-0,0117	-0,0219	-0,1058
12.06.2026 10:29:39	-0,0555	-0,1190	 0,0912	 0,1190	-0,0109	-0,0161	-0,0358	 0,0139	 0,0051	-0,0934	-0,0628	 0,0263	-0,0022	-0,0336	 0,0000	-0,0022	-0,0423	-0,0022	-0,0423	 0,0161	 0,0511	 0,0117	-0,0336	-0,0372	 0,0124	 1,5227	 0,0496	-0,0292	 0,0285	-0,0511	-0,0080	-0,1387
12.06.2026 10:29:39	-0,0599	-0,1131	 0,1037	 0,0825	-0,0219	-0,0153	-0,0066	 0,0226	 0,0197	-0,0971	-0,0599	 0,0212	 0,0007	-0,0328	 0,0000	-0,0051	-0,0927	 0,0000	-0,0453	 0,0124	 0,0504	 0,0095	-0,0350	-0,0394	 0,0117	 1,5658	 0,0496	-0,0453	 0,0540	-0,0650	 0,0007	-0,1577
12.06.2026 10:29:39	-0,0657	-0,1183	-0,0423	-0,0934	-0,0190	-0,0314	-0,0058	 0,0518	 0,0635	-0,1190	-0,0723	 0,0131	 0,0058	-0,0365	 0,0000	 0,0007	-0,1621	-0,0044	-0,0547	 0,0058	 0,0438	 0,0044	-0,0445	-0,0474	 0,0029	 1,5242	 0,0438	-0,0482	 0,0620	-0,0562	 0,0044	-0,1482
12.06.2026 10:29:39	-0,0796	-0,1423	-0,2745	-0,2080	-0,0299	-0,0489	 0,0197	 0,0949	 0,1044	-0,1431	-0,1029	 0,0044	-0,0051	-0,0401	 0,0000	 0,0029	-0,0664	-0,0212	-0,0599	 0,0000	 0,0372	-0,0007	-0,0496	-0,0533	-0,0051	 1,5578	 0,0409	-0,0328	 0,0737	-0,0321	 0,0080	-0,1445
12.06.2026 10:29:39	-0,0635	-0,1277	-0,1876	 0,0139	-0,0204	-0,0372	 0,0190	 0,0511	 0,0584	-0,1175	-0,0781	 0,0161	 0,0022	-0,0328	 0,0000	-0,0007	-0,0029	-0,0117	-0,0474	 0,0080	 0,0453	 0,0058	-0,0372	-0,0416	 0,0058	 1,6111	 0,0620	-0,0197	 0,0993	-0,0124	 0,0197	-0,1409
12.06.2026 10:29:39	-0,0511	-0,1197	-0,0102	 0,2292	-0,0015	-0,0241	 0,0066	 0,0117	 0,0139	-0,0949	-0,0584	 0,0277	 0,0000	-0,0277	 0,0000	-0,0022	-0,0226	-0,0007	-0,0387	 0,0161	 0,0518	 0,0124	-0,0321	-0,0328	 0,0139	 1,6213	 0,0715	-0,0526	 0,1110	-0,0314	 0,0255	-0,1657
12.06.2026 10:29:39	-0,0445	-0,1190	 0,1372	 0,2358	-0,0022	-0,0204	 0,0401	 0,0219	-0,0139	-0,0905	-0,0628	 0,0350	-0,0007	-0,0277	 0,0000	-0,0051	-0,0328	 0,0066	-0,0343	 0,0182	 0,0533	 0,0146	-0,0263	-0,0292	 0,0182	 1,5994	 0,0489	-0,0737	 0,0993	-0,0387	 0,0248	-0,1759
12.06.2026 10:29:39	-0,0438	-0,1168	 0,1314	 0,1642	-0,0102	-0,0204	 0,0292	 0,0270	 0,0066	-0,0934	-0,0672	 0,0292	-0,0051	-0,0336	 0,0000	 0,0000	-0,1058	 0,0044	-0,0416	 0,0131	 0,0511	 0,0117	-0,0321	-0,0343	 0,0139	 1,5439	 0,0518	-0,0723	 0,1117	-0,0482	 0,0526	-0,1591
12.06.2026 10:29:39	-0,0460	-0,1248	 0,0920	 0,0796	-0,0015	-0,0139	-0,0197	 0,0423	 0,0416	-0,1022	-0,0737	 0,0234	-0,0022	-0,0365	 0,0000	 0,0000	-0,0131	 0,0007	-0,0460	 0,0117	 0,0496	 0,0117	-0,0350	-0,0394	 0,0095	 1,4862	 0,0540	-0,0599	 0,1153	-0,0489	 0,0628	-0,1548
12.06.2026 10:29:39	-0,0445	-0,1110	 0,0745	 0,0270	-0,0066	-0,0102	-0,0292	 0,0409	 0,0438	-0,0956	-0,0599	 0,0263	 0,0131	-0,0336	 0,0000	 0,0022	 0,0438	-0,0007	-0,0431	 0,0131	 0,0489	 0,0124	-0,0299	-0,0372	 0,0102	 1,4235	 0,0328	-0,0394	 0,0978	-0,0299	 0,0438	-0,1314
12.06.2026 10:29:39	-0,0482	-0,1000	 0,0423	 0,0803	-0,0168	-0,0109	-0,0248	 0,0314	 0,0380	-0,0832	-0,0591	 0,0277	 0,0102	-0,0321	 0,0000	 0,0029	-0,0117	-0,0015	-0,0409	 0,0161	 0,0511	 0,0117	-0,0336	-0,0321	 0,0102	 1,4636	 0,0438	-0,0204	 0,0839	-0,0401	 0,0212	-0,1226
12.06.2026 10:29:39	-0,0445	-0,1022	-0,0036	 0,0730	-0,0022	-0,0109	 0,0168	 0,0350	-0,0146	-0,0905	-0,0642	 0,0299	 0,0124	-0,0277	 0,0000	 0,0000	-0,0314	 0,0000	-0,0380	 0,0175	 0,0518	 0,0117	-0,0380	-0,0285	 0,0095	 1,5132	 0,0380	-0,0088	 0,0818	-0,0496	 0,0073	-0,1329
12.06.2026 10:29:39	-0,0555	-0,1161	-0,2059	 0,0255	-0,0095	-0,0248	 0,0277	 0,0620	 0,0299	-0,1007	-0,0810	 0,0241	 0,0226	-0,0263	 0,0000	 0,0000	-0,0212	-0,0080	-0,0453	 0,0124	 0,0482	 0,0073	-0,0387	-0,0336	 0,0044	 1,4716	 0,0226	 0,0022	 0,1000	-0,0277	 0,0358	-0,0978
12.06.2026 10:29:39	-0,0642	-0,1212	-0,1058	 0,0328	-0,0212	-0,0234	 0,0080	 0,0577	 0,0241	-0,1029	-0,0635	 0,0321	 0,0088	-0,0307	 0,0000	-0,0051	-0,0168	-0,0044	-0,0401	 0,0168	 0,0511	 0,0109	-0,0321	-0,0255	 0,0102	 1,4957	 0,0409	 0,0139	 0,1095	-0,0182	 0,0416	-0,0723
12.06.2026 10:29:39	-0,0504	-0,1095	 0,1292	 0,0759	-0,0088	-0,0153	 0,0000	 0,0285	 0,0241	-0,0934	-0,0387	 0,0394	-0,0168	-0,0321	 0,0000	 0,0007	-0,0387	 0,0044	-0,0314	 0,0226	 0,0569	 0,0168	-0,0292	-0,0182	 0,0190	 1,5184	 0,0226	 0,0175	 0,0905	-0,0117	 0,0226	-0,0766
12.06.2026 10:29:39	-0,0358	-0,1029	 0,1664	 0,1029	 0,0000	-0,0139	-0,0080	 0,0182	 0,0613	-0,0927	-0,0460	 0,0372	-0,0182	-0,0350	 0,0000	 0,0066	-0,1664	 0,0088	-0,0358	 0,0197	 0,0555	 0,0146	-0,0328	-0,0219	 0,0175	 1,5264	 0,0248	 0,0234	 0,0949	-0,0197	 0,0263	-0,0964
12.06.2026 10:29:39	-0,0555	-0,1088	 0,1058	 0,0562	-0,0197	-0,0102	-0,0088	 0,0219	 0,0051	-0,1037	-0,0628	 0,0307	 0,0007	-0,0336	 0,0000	 0,0015	-0,0255	 0,0058	-0,0372	 0,0182	 0,0533	 0,0153	-0,0255	-0,0263	 0,0161	 1,5096	 0,0613	-0,0175	 0,1204	-0,0613	 0,0584	-0,1350
12.06.2026 10:29:39	-0,0635	-0,1139	 0,0606	 0,0270	-0,0080	-0,0146	-0,0292	 0,0365	 0,1073	-0,1161	-0,0723	 0,0234	 0,0022	-0,0350	 0,0000	 0,0066	 0,0788	 0,0044	-0,0409	 0,0139	 0,0496	 0,0146	-0,0248	-0,0299	 0,0131	 1,4468	 0,0839	-0,0504	 0,1358	-0,0869	 0,0781	-0,1482
12.06.2026 10:29:39	-0,0394	-0,1131	 0,0000	-0,0423	 0,0139	-0,0190	-0,0044	 0,0292	 0,0956	-0,1380	-0,0496	 0,0445	-0,0015	-0,0365	 0,0000	 0,0066	-0,0993	 0,0015	-0,0321	 0,0139	 0,0474	 0,0109	-0,0358	-0,0255	 0,0124	 1,3775	 0,0985	-0,0380	 0,1321	-0,0818	 0,0832	-0,1387
12.06.2026 10:29:39	-0,0394	-0,1139	-0,0635	-0,0241	-0,0044	-0,0321	 0,0175	 0,0409	 0,0591	-0,1190	-0,0511	 0,0547	 0,0007	-0,0350	 0,0000	 0,0036	-0,1007	-0,0022	-0,0321	 0,0146	 0,0482	 0,0102	-0,0372	-0,0255	 0,0102	 1,3081	 0,0898	-0,0153	 0,1124	-0,0518	 0,0715	-0,1139
12.06.2026 10:29:39	-0,0380	-0,1139	-0,1183	 0,0117	-0,0015	-0,0299	 0,0562	 0,0642	 0,0759	-0,0971	-0,0781	 0,0460	-0,0117	-0,0328	 0,0000	 0,0015	-0,0650	-0,0102	-0,0387	 0,0124	 0,0467	 0,0095	-0,0365	-0,0292	 0,0095	 1,3505	 0,0562	 0,0285	 0,0891	-0,0131	 0,0175	-0,0774
12.06.2026 10:29:39	-0,0328	-0,1190	-0,1613	 0,0401	 0,0095	-0,0204	 0,0263	 0,0350	-0,0044	-0,1124	-0,0642	 0,0423	-0,0095	-0,0307	 0,0000	 0,0007	-0,0394	-0,0058	-0,0321	 0,0190	 0,0533	 0,0146	-0,0314	-0,0175	 0,0182	 1,3767	 0,0372	 0,0409	 0,0547	 0,0226	-0,0175	-0,0664
12.06.2026 10:29:39	-0,0372	-0,1190	-0,0657	 0,0591	-0,0044	-0,0365	-0,0022	 0,0409	-0,0080	-0,1175	-0,0591	 0,0197	 0,0372	-0,0285	 0,0000	-0,0015	-0,0438	 0,0095	-0,0394	 0,0175	 0,0533	 0,0131	-0,0307	-0,0219	 0,0161	 1,3227	 0,0431	 0,0307	 0,0365	 0,0212	-0,0285	-0,0620
12.06.2026 10:29:39	-0,0401	-0,1110	 0,0022	 0,0453	-0,0022	-0,0307	 0,0504	 0,0504	 0,0350	-0,1029	-0,0642	 0,0226	 0,0482	-0,0212	 0,0000	-0,0066	-0,0920	 0,0080	-0,0358	 0,0190	 0,0511	 0,0109	-0,0343	-0,0219	 0,0153	 1,3264	 0,0226	 0,0226	 0,0248	 0,0080	-0,0343	-0,0526
12.06.2026 10:29:39	-0,0307	-0,0927	-0,0547	 0,0511	 0,0153	-0,0124	 0,0299	 0,0161	-0,0109	-0,0613	-0,0365	 0,0482	 0,0139	-0,0212	 0,0000	-0,0029	-0,0606	 0,0146	-0,0234	 0,0277	 0,0584	 0,0197	-0,0212	-0,0109	 0,0255	 1,3475	 0,0248	-0,0161	 0,0460	-0,0321	-0,0161	-0,1000
12.06.2026 10:29:39	-0,0380	-0,1131	-0,1453	-0,0854	-0,0007	-0,0307	 0,0518	 0,0526	 0,0686	-0,0905	-0,0591	 0,0343	 0,0073	-0,0277	 0,0000	 0,0029	-0,1204	 0,0007	-0,0358	 0,0161	 0,0496	 0,0124	-0,0321	-0,0241	 0,0146	 1,3454	 0,0489	-0,0380	 0,0803	-0,0474	 0,0000	-0,1423
12.06.2026 10:29:39	-0,0547	-0,1445	-0,0190	-0,2321	-0,0058	-0,0569	-0,0715	 0,0781	 0,1548	-0,1869	-0,0796	 0,0146	-0,0117	-0,0372	 0,0000	 0,0146	-0,1679	-0,0102	-0,0474	 0,0058	 0,0401	 0,0036	-0,0496	-0,0365	 0,0000	 1,3125	 0,0759	-0,0533	 0,1037	-0,0445	 0,0234	-0,1606
12.06.2026 10:29:39	-0,0664	-0,1380	-0,0139	-0,1307	-0,0153	-0,0584	-0,0599	 0,0839	 0,1073	-0,1715	-0,0854	 0,0073	-0,0255	-0,0358	 0,0000	 0,0022	 0,0336	-0,0080	-0,0496	 0,0036	 0,0394	 0,0029	-0,0416	-0,0394	-0,0015	 1,2373	 0,1234	-0,1015	 0,1365	-0,0927	 0,0584	-0,1964
12.06.2026 10:29:39	-0,0657	-0,1285	-0,0555	-0,0328	-0,0197	-0,0343	 0,1080	 0,0591	 0,0891	-0,1621	-0,0832	 0,0161	-0,0080	-0,0336	 0,0000	-0,0015	 0,0985	 0,0007	-0,0438	 0,0095	 0,0438	 0,0080	-0,0321	-0,0350	 0,0051	 1,1577	 0,1248	-0,1015	 0,1453	-0,0978	 0,0628	-0,1788
12.06.2026 10:29:39	-0,0555	-0,1307	 0,1482	 0,0022	-0,0146	-0,0051	-0,0197	 0,0394	 0,1190	-0,1197	-0,0679	 0,0219	 0,0044	-0,0358	 0,0000	 0,0036	-0,0095	 0,0080	-0,0387	 0,0146	 0,0482	 0,0102	-0,0314	-0,0299	 0,0088	 1,0767	 0,1088	-0,1037	 0,1380	-0,1124	 0,0511	-0,1657
12.06.2026 10:29:39	-0,0650	-0,1343	 0,0000	 0,0847	-0,0263	-0,0161	-0,0832	 0,0569	 0,0861	-0,0708	-0,0796	 0,0190	-0,0007	-0,0307	 0,0000	-0,0044	-0,0898	-0,0022	-0,0401	 0,0117	 0,0453	 0,0036	-0,0423	-0,0336	 0,0029	 1,1161	 0,1029	-0,1131	 0,1219	-0,1329	 0,0277	-0,1730
12.06.2026 10:29:39	-0,0438	-0,1029	-0,1657	 0,1978	 0,0073	-0,0146	 0,0518	 0,0285	-0,0934	-0,0759	-0,0599	 0,0321	 0,0058	-0,0234	 0,0000	-0,0109	-0,0482	 0,0102	-0,0343	 0,0182	 0,0518	 0,0088	-0,0343	-0,0263	 0,0109	 1,1315	 0,0942	-0,1073	 0,1124	-0,1482	 0,0175	-0,1883
12.06.2026 10:29:39	-0,0336	-0,0912	 0,0569	 0,2891	 0,0007	 0,0080	 0,0161	 0,0190	-0,1051	-0,0511	-0,0547	 0,0365	 0,0161	-0,0234	 0,0000	-0,0139	 0,0255	 0,0131	-0,0314	 0,0219	 0,0555	 0,0131	-0,0255	-0,0204	 0,0139	 1,0526	 0,0774	-0,1066	 0,1029	-0,1577	 0,0124	-0,1942
12.06.2026 10:29:39	-0,0511	-0,0964	 0,1277	 0,1803	 0,0029	 0,0124	-0,0540	 0,0175	-0,0197	-0,0730	-0,0460	 0,0343	 0,0080	-0,0255	 0,0000	-0,0088	-0,0343	 0,0131	-0,0314	 0,0212	 0,0555	 0,0109	-0,0307	-0,0212	 0,0131	 1,0775	 0,0693	-0,0774	 0,0898	-0,1365	-0,0007	-0,1599
12.06.2026 10:29:39	-0,0438	-0,0978	 0,0000	 0,0511	 0,0131	 0,0036	 0,0277	 0,0255	 0,0088	-0,0861	-0,0460	 0,0219	 0,0066	-0,0299	 0,0000	-0,0073	-0,0131	 0,0182	-0,0387	 0,0161	 0,0511	 0,0080	-0,0314	-0,0285	 0,0088	 0,9928	 0,0701	-0,0606	 0,0832	-0,1358	-0,0051	-0,1504
12.06.2026 10:29:39	-0,0438	-0,1088	-0,0343	 0,0365	-0,0007	-0,0102	 0,0394	 0,0489	 0,0591	-0,1037	-0,0577	 0,0073	 0,0088	-0,0314	 0,0000	-0,0044	-0,0774	 0,0058	-0,0496	 0,0073	 0,0431	 0,0022	-0,0416	-0,0401	-0,0015	 0,9628	 0,0555	-0,0635	 0,0781	-0,1394	-0,0270	-0,1825
12.06.2026 10:29:39	-0,0453	-0,1102	 0,0518	 0,0562	 0,0007	-0,0095	 0,0518	 0,0562	 0,1037	-0,1124	-0,0555	 0,0095	-0,0044	-0,0336	 0,0000	-0,0051	-0,0861	 0,0058	-0,0489	 0,0073	 0,0423	 0,0022	-0,0416	-0,0416	-0,0007	 0,9950	 0,0438	-0,0314	 0,0657	-0,1102	-0,0372	-0,1664
12.06.2026 10:29:39	-0,0314	-0,1270	 0,0861	 0,0883	 0,0029	-0,0051	 0,0285	 0,0358	 0,0409	-0,0905	-0,0723	 0,0212	-0,0073	-0,0336	 0,0000	-0,0044	 0,0080	 0,0007	-0,0431	 0,0109	 0,0445	 0,0051	-0,0380	-0,0387	 0,0007	 0,9190	 0,0380	-0,0044	 0,0504	-0,0796	-0,0321	-0,1153
12.06.2026 10:29:39	-0,0307	-0,1387	 0,1015	 0,1394	 0,0022	-0,0109	 0,0058	 0,0307	-0,0124	-0,1029	-0,0759	 0,0314	 0,0036	-0,0285	 0,0000	-0,0080	-0,0854	-0,0007	-0,0394	 0,0139	 0,0460	 0,0029	-0,0423	-0,0372	 0,0000	 0,8453	 0,0518	 0,0175	 0,0453	-0,0474	-0,0204	-0,0818
12.06.2026 10:29:39	-0,0358	-0,1226	 0,0000	 0,0730	 0,0029	-0,0197	 0,0328	 0,0255	 0,0255	-0,1204	-0,0723	 0,0489	 0,0066	-0,0292	 0,0000	-0,0124	-0,0796	 0,0036	-0,0350	 0,0153	 0,0460	 0,0022	-0,0409	-0,0343	 0,0007	 0,7599	 0,0496	 0,0453	 0,0394	-0,0299	-0,0146	-0,0664
12.06.2026 10:29:39	-0,0555	-0,1212	-0,0956	 0,0365	-0,0124	-0,0197	 0,0416	 0,0299	-0,0073	-0,1131	-0,0620	 0,0226	 0,0117	-0,0307	 0,0000	-0,0088	-0,0139	 0,0073	-0,0416	 0,0124	 0,0460	 0,0044	-0,0380	-0,0343	 0,0022	 0,8081	 0,0234	 0,0577	 0,0285	-0,0255	-0,0445	-0,0577
12.06.2026 10:29:39	-0,0555	-0,1197	-0,1285	-0,0409	-0,0153	-0,0197	 0,0270	 0,0540	 0,0175	-0,1037	-0,0635	-0,0007	-0,0029	-0,0321	 0,0000	-0,0073	-0,0109	 0,0015	-0,0511	 0,0088	 0,0431	 0,0029	-0,0394	-0,0409	-0,0007	 0,8358	 0,0263	 0,0606	 0,0241	-0,0328	-0,0504	-0,0686
12.06.2026 10:29:39	-0,0423	-0,1197	-0,2037	-0,0774	-0,0015	-0,0175	-0,0015	 0,0701	 0,0774	-0,1007	-0,0759	 0,0168	-0,0015	-0,0307	 0,0000	-0,0058	-0,0161	-0,0241	-0,0489	 0,0066	 0,0401	-0,0029	-0,0504	-0,0431	-0,0080	 0,7563	 0,0380	 0,0526	 0,0350	-0,0606	-0,0270	-0,0774
12.06.2026 10:29:39	-0,0591	-0,1139	-0,0584	 0,0533	-0,0175	-0,0146	 0,0219	 0,0723	 0,1394	-0,1000	-0,0679	 0,0153	 0,0015	-0,0292	 0,0000	-0,0029	-0,0708	-0,0080	-0,0460	 0,0088	 0,0431	 0,0000	-0,0460	-0,0372	-0,0022	 0,7701	 0,0453	 0,0664	 0,0635	-0,0489	-0,0109	-0,0569
12.06.2026 10:29:39	-0,0496	-0,1110	 0,1365	 0,1022	-0,0029	-0,0058	-0,0029	 0,0409	 0,1000	-0,0905	-0,0679	 0,0248	-0,0066	-0,0292	 0,0000	-0,0007	-0,0161	-0,0029	-0,0431	 0,0131	 0,0453	 0,0073	-0,0372	-0,0336	 0,0015	 0,8001	 0,0672	 0,0723	 0,0861	-0,0635	-0,0102	-0,0730
12.06.2026 10:29:39	-0,0365	-0,1117	 0,1694	 0,1854	 0,0007	 0,0051	-0,0431	 0,0321	-0,0328	-0,0701	-0,0511	 0,0277	 0,0022	-0,0285	 0,0000	-0,0044	-0,0569	-0,0029	-0,0409	 0,0161	 0,0474	 0,0102	-0,0380	-0,0321	 0,0029	 0,7752	 0,0555	 0,0985	 0,0737	-0,0445	-0,0453	-0,0774
12.06.2026 10:29:39	-0,0277	-0,1015	 0,1475	 0,2504	 0,0095	 0,0080	 0,0022	 0,0409	-0,0080	-0,0584	-0,0620	 0,0328	 0,0182	-0,0292	 0,0000	-0,0044	-0,0095	 0,0139	-0,0431	 0,0131	 0,0460	 0,0109	-0,0328	-0,0380	 0,0015	 0,7176	 0,0372	 0,1088	 0,0504	-0,0153	-0,0745	-0,0774
12.06.2026 10:29:39	-0,0248	-0,1066	 0,1431	 0,2358	 0,0146	 0,0036	 0,0036	 0,0321	 0,0131	-0,0664	-0,0540	 0,0219	 0,0248	-0,0285	 0,0000	-0,0036	-0,0270	 0,0175	-0,0453	 0,0117	 0,0453	 0,0109	-0,0336	-0,0416	-0,0007	 0,6117	 0,0555	 0,0927	 0,0555	-0,0277	-0,0635	-0,0774
12.06.2026 10:29:39	-0,0511	-0,1037	 0,0343	 0,1248	-0,0146	-0,0182	-0,0146	 0,0431	 0,0394	-0,1058	-0,0423	-0,0109	-0,0058	-0,0350	 0,0000	-0,0036	-0,2526	 0,0365	-0,0547	 0,0073	 0,0423	 0,0095	-0,0394	-0,0416	 0,0007	 0,5117	 0,0679	 0,0956	 0,0642	-0,0292	-0,0577	-0,0613
12.06.2026 10:29:39	-0,0701	-0,1263	-0,0591	 0,0161	-0,0270	-0,0438	 0,0248	 0,0540	 0,0613	-0,1204	-0,0825	 0,0182	-0,0190	-0,0358	 0,0000	-0,0022	-0,0620	 0,0000	-0,0577	 0,0015	 0,0350	 0,0000	-0,0496	-0,0467	-0,0109	 0,4475	 0,0642	 0,0839	 0,0584	-0,0438	-0,0635	-0,0547
12.06.2026 10:29:39	-0,1007	-0,1387	-0,2716	-0,0474	-0,0511	-0,0620	 0,1088	 0,0905	 0,0788	-0,1088	-0,0730	 0,0000	-0,0066	-0,0299	 0,0000	-0,0080	-0,0036	-0,0248	-0,0606	 0,0007	 0,0343	-0,0044	-0,0577	-0,0467	-0,0146	 0,4840	 0,0657	 0,0723	 0,0547	-0,0599	-0,0708	-0,0620
12.06.2026 10:29:39	-0,1161	-0,1358	-0,3146	-0,0431	-0,0504	-0,0533	 0,0993	 0,1212	 0,1139	-0,1175	-0,0810	-0,0285	-0,0146	-0,0365	 0,0000	-0,0146	-0,0971	-0,0299	-0,0672	-0,0036	 0,0292	-0,0095	-0,0635	-0,0496	-0,0197	 0,5022	 0,0737	 0,0496	 0,0489	-0,0803	-0,0825	-0,0927
12.06.2026 10:29:39	-0,0869	-0,1365	-0,0080	 0,1329	-0,0336	-0,0124	-0,0080	 0,0518	 0,0285	-0,0876	-0,0796	 0,0241	-0,0029	-0,0328	 0,0000	-0,0139	-0,0073	-0,0321	-0,0423	 0,0124	 0,0438	 0,0000	-0,0511	-0,0292	-0,0044	 0,4380	 0,0701	 0,0226	 0,0569	-0,0803	-0,0737	-0,0818
12.06.2026 10:29:39	-0,0752	-0,1088	 0,1635	 0,2584	-0,0219	-0,0022	 0,0051	 0,0124	-0,0175	-0,0715	-0,0555	 0,0277	-0,0080	-0,0277	 0,0000	-0,0080	-0,0175	-0,0007	-0,0372	 0,0204	 0,0540	 0,0124	-0,0365	-0,0168	 0,0124	 0,4453	 0,0526	 0,0292	 0,0518	-0,0832	-0,0825	-0,0730
12.06.2026 10:29:39	-0,0723	-0,1073	 0,1402	 0,0015	-0,0146	-0,0409	-0,0657	 0,0540	 0,1080	-0,0971	-0,0628	 0,0073	-0,0248	-0,0365	 0,0000	 0,0029	-0,0540	-0,0146	-0,0555	 0,0051	 0,0401	 0,0022	-0,0518	-0,0350	-0,0044	 0,4723	 0,0409	 0,0518	 0,0533	-0,0766	-0,0869	-0,0796
12.06.2026 10:29:39	-0,0869	-0,1256	-0,0854	-0,2606	-0,0431	-0,0635	 0,0431	 0,1058	 0,1139	-0,1095	-0,0759	 0,0139	-0,0139	-0,0358	 0,0000	-0,0022	-0,0533	-0,0292	-0,0547	 0,0022	 0,0350	-0,0044	-0,0606	-0,0416	-0,0117	 0,4672	 0,0365	 0,0679	 0,0642	-0,0672	-0,0847	-0,0664
12.06.2026 10:29:39	-0,0818	-0,1263	-0,0504	-0,0109	-0,0204	-0,0314	 0,0701	 0,0693	 0,0445	-0,0912	-0,0745	 0,0190	-0,0088	-0,0314	 0,0000	-0,0051	-0,0117	-0,0190	-0,0467	 0,0073	 0,0401	 0,0000	-0,0482	-0,0350	-0,0051	 0,4321	 0,0219	 0,0672	 0,0401	-0,0883	-0,0934	-0,0759
12.06.2026 10:29:39	-0,0599	-0,1343	 0,1285	 0,1869	 0,0000	-0,0073	-0,0898	 0,0190	 0,0365	-0,0788	-0,0664	 0,0175	 0,0044	-0,0292	 0,0000	-0,0036	-0,0029	-0,0117	-0,0394	 0,0153	 0,0467	 0,0088	-0,0394	-0,0270	 0,0036	 0,3570	 0,0314	 0,0533	 0,0358	-0,0920	-0,0818	-0,0781
12.06.2026 10:29:39	-0,0861	-0,1409	 0,0051	 0,0912	-0,0299	-0,0285	 0,0263	 0,0504	 0,0679	-0,0978	-0,0839	 0,0146	 0,0073	-0,0285	 0,0000	-0,0117	-0,0314	-0,0161	-0,0431	 0,0131	 0,0431	 0,0029	-0,0460	-0,0321	 0,0000	 0,2803	 0,0416	 0,0467	 0,0511	-0,0905	-0,0715	-0,0664
12.06.2026 10:29:39	-0,0985	-0,1372	-0,1949	 0,1365	-0,0365	-0,0511	 0,0219	 0,0912	 0,0774	-0,0971	-0,0891	-0,0015	-0,0109	-0,0328	 0,0000	-0,0095	-0,0482	-0,0255	-0,0540	 0,0044	 0,0350	-0,0044	-0,0511	-0,0438	-0,0109	 0,2124	 0,0321	 0,0511	 0,0686	-0,0883	-0,0518	-0,0613
12.06.2026 10:29:39	-0,0788	-0,1248	-0,1153	 0,2044	-0,0255	-0,0307	 0,0613	 0,0766	 0,0533	-0,0891	-0,0620	 0,0139	-0,0190	-0,0328	 0,0000	 0,0000	-0,1270	-0,0124	-0,0496	 0,0088	 0,0394	 0,0022	-0,0467	-0,0372	-0,0058	 0,2482	 0,0321	 0,0562	 0,0774	-0,0818	-0,0555	-0,0577
12.06.2026 10:29:39	-0,0664	-0,1197	 0,1270	 0,1898	-0,0190	-0,0029	-0,0044	 0,0467	 0,0131	-0,0752	-0,0796	 0,0212	 0,0015	-0,0314	 0,0000	 0,0029	-0,0686	-0,0095	-0,0423	 0,0153	 0,0453	 0,0073	-0,0394	-0,0307	 0,0022	 0,2847	 0,0350	 0,0453	 0,0657	-0,0832	-0,0628	-0,0715
12.06.2026 10:29:39	-0,0766	-0,1131	 0,1270	 0,2402	-0,0204	-0,0051	-0,0526	 0,0416	-0,0409	-0,0620	-0,0752	 0,0248	 0,0051	-0,0321	 0,0000	-0,0022	-0,0022	-0,0102	-0,0394	 0,0182	 0,0496	 0,0102	-0,0350	-0,0255	 0,0066	 0,2314	 0,0431	 0,0438	 0,0584	-0,0715	-0,0518	-0,0635
12.06.2026 10:29:39	-0,0839	-0,1110	-0,0438	 0,2278	-0,0212	-0,0292	 0,0577	 0,0555	 0,0350	-0,0693	-0,0445	 0,0380	-0,0029	-0,0292	 0,0000	-0,0080	-0,1015	-0,0073	-0,0380	 0,0175	 0,0489	 0,0066	-0,0409	-0,0226	 0,0073	 0,2570	 0,0511	 0,0445	 0,0431	-0,0453	-0,0394	-0,0474
12.06.2026 10:29:39	-0,0949	-0,1438	-0,1409	 0,1613	-0,0336	-0,0569	 0,0431	 0,0708	 0,1234	-0,0810	-0,0788	 0,0197	-0,0080	-0,0336	 0,0000	-0,0080	-0,0307	-0,0182	-0,0518	 0,0058	 0,0416	-0,0007	-0,0474	-0,0365	-0,0015	 0,3073	 0,0467	 0,0431	 0,0358	-0,0343	-0,0474	-0,0474
12.06.2026 10:29:39	-0,1080	-0,1460	-0,0343	 0,0255	-0,0569	-0,0577	-0,0139	 0,0693	 0,0818	-0,1095	-0,0854	 0,0036	-0,0277	-0,0394	 0,0000	-0,0022	 0,0314	-0,0190	-0,0591	 0,0015	 0,0387	 0,0000	-0,0445	-0,0431	-0,0044	 0,3212	 0,0314	 0,0416	 0,0321	-0,0387	-0,0781	-0,0635
12.06.2026 10:29:39	-0,1037	-0,1372	 0,0905	 0,0504	-0,0496	-0,0423	 0,0292	 0,0635	 0,0584	-0,0891	-0,0752	-0,0015	-0,0146	-0,0394	 0,0000	-0,0058	-0,0818	-0,0146	-0,0577	 0,0044	 0,0423	 0,0007	-0,0423	-0,0423	 0,0000	 0,3051	 0,0080	 0,0307	 0,0212	-0,0453	-0,0927	-0,0664
12.06.2026 10:29:39	-0,0978	-0,1292	 0,1394	 0,1883	-0,0328	-0,0343	-0,0044	 0,0241	 0,0051	-0,0861	-0,0737	 0,0146	 0,0000	-0,0387	 0,0000	-0,0044	-0,1234	-0,0073	-0,0496	 0,0117	 0,0504	 0,0095	-0,0343	-0,0343	 0,0095	 0,2518	 0,0117	 0,0416	 0,0350	-0,0562	-0,0715	-0,0540
12.06.2026 10:29:39	-0,0949	-0,1153	 0,1606	 0,1606	-0,0314	-0,0307	-0,0482	 0,0234	-0,0088	-0,1131	-0,0584	 0,0146	 0,0000	-0,0380	 0,0000	-0,0029	 0,0139	-0,0066	-0,0474	 0,0124	 0,0504	 0,0124	-0,0299	-0,0350	 0,0102	 0,1949	 0,0212	 0,0270	 0,0409	-0,0664	-0,0591	-0,0774
12.06.2026 10:29:39	-0,0942	-0,1168	 0,1131	 0,1737	-0,0431	-0,0387	-0,0051	 0,0343	 0,0650	-0,0540	-0,0650	 0,0036	-0,0153	-0,0423	 0,0000	-0,0058	-0,0511	-0,0080	-0,0533	 0,0051	 0,0445	 0,0044	-0,0387	-0,0431	 0,0029	 0,1416	 0,0314	 0,0263	 0,0547	-0,0642	-0,0496	-0,0839
12.06.2026 10:29:39	-0,0949	-0,1153	 0,0796	 0,2351	-0,0467	-0,0445	-0,0204	 0,0387	 0,0124	-0,0467	-0,0766	 0,0051	-0,0401	-0,0431	 0,0000	-0,0007	-0,1175	-0,0088	-0,0540	 0,0036	 0,0445	 0,0029	-0,0431	-0,0431	 0,0007	 0,2037	 0,0358	 0,0518	 0,0635	-0,0620	-0,0343	-0,0715
12.06.2026 10:29:39	-0,1088	-0,1234	-0,0212	 0,1986	-0,0409	-0,0445	 0,0642	 0,0511	 0,0898	-0,0883	-0,0796	-0,0029	-0,0277	-0,0423	 0,0000	 0,0000	 0,0000	-0,0197	-0,0577	 0,0022	 0,0416	 0,0022	-0,0453	-0,0489	-0,0044	 0,2650	 0,0175	 0,0635	 0,0562	-0,0511	-0,0394	-0,0584
12.06.2026 10:29:39	-0,1175	-0,1183	-0,1650	 0,1292	-0,0387	-0,0533	 0,0029	 0,0606	 0,0927	-0,0818	-0,0672	-0,0036	-0,0241	-0,0423	 0,0000	-0,0044	 0,0015	-0,0234	-0,0599	 0,0000	 0,0401	-0,0007	-0,0474	-0,0504	-0,0044	 0,2292	 0,0328	 0,0723	 0,0635	-0,0474	-0,0321	-0,0445
12.06.2026 10:29:39	-0,1015	-0,1095	-0,0788	 0,1883	-0,0467	-0,0438	-0,0182	 0,0577	-0,0058	-0,0650	-0,0701	 0,0088	-0,0307	-0,0401	 0,0000	-0,0066	-0,0387	-0,0168	-0,0526	 0,0036	 0,0453	 0,0036	-0,0409	-0,0431	 0,0007	 0,2767	 0,0336	 0,0715	 0,0504	-0,0547	-0,0343	-0,0409
12.06.2026 10:29:39	-0,0927	-0,1117	 0,0562	 0,2270	-0,0394	-0,0445	 0,0175	 0,0467	 0,0124	-0,0562	-0,0540	 0,0139	-0,0307	-0,0423	 0,0000	-0,0022	-0,0277	-0,0161	-0,0504	 0,0066	 0,0467	 0,0058	-0,0372	-0,0409	 0,0036	 0,3329	 0,0401	 0,0606	 0,0642	-0,0547	-0,0109	-0,0372
12.06.2026 10:29:39	-0,0956	-0,1190	 0,1044	 0,1840	-0,0358	-0,0504	-0,0445	 0,0365	 0,0131	-0,0686	-0,0577	 0,0095	-0,0197	-0,0431	 0,0000	-0,0022	-0,1022	-0,0204	-0,0526	 0,0044	 0,0460	 0,0058	-0,0416	-0,0431	 0,0029	 0,3526	 0,0672	 0,0526	 0,0891	-0,0540	-0,0029	-0,0416
12.06.2026 10:29:39	-0,0942	-0,1234	 0,0562	 0,1774	-0,0380	-0,0445	-0,0124	 0,0241	 0,0314	-0,0679	-0,0745	 0,0131	-0,0292	-0,0409	 0,0000	-0,0007	-0,1073	-0,0153	-0,0511	 0,0044	 0,0460	 0,0080	-0,0394	-0,0431	 0,0036	 0,3431	 0,0730	 0,0504	 0,0803	-0,0606	-0,0212	-0,0409
12.06.2026 10:29:39	-0,1058	-0,1285	-0,0321	 0,1358	-0,0394	-0,0518	 0,0314	 0,0416	 0,0511	-0,0832	-0,0672	 0,0109	-0,0190	-0,0416	 0,0000	-0,0044	 0,0124	-0,0270	-0,0555	 0,0007	 0,0423	 0,0029	-0,0416	-0,0467	 0,0007	 0,2650	 0,0985	 0,0496	 0,1007	-0,0606	-0,0044	-0,0380
12.06.2026 10:29:39	-0,1153	-0,1329	-0,0380	 0,1380	-0,0599	-0,0650	-0,0453	 0,0496	 0,0562	-0,0920	-0,0847	 0,0022	-0,0007	-0,0431	 0,0000	-0,0073	-0,1153	-0,0307	-0,0591	-0,0015	 0,0394	 0,0000	-0,0467	-0,0518	-0,0029	 0,2088	 0,0883	 0,0453	 0,0920	-0,0708	-0,0044	-0,0431
12.06.2026 10:29:39	-0,1080	-0,1409	-0,0102	 0,1321	-0,0526	-0,0883	-0,0679	 0,0401	 0,0365	-0,0854	-0,0825	-0,0029	-0,0131	-0,0394	 0,0000	-0,0044	-0,0912	-0,0255	-0,0599	-0,0007	 0,0409	 0,0022	-0,0423	-0,0533	 0,0000	 0,1504	 0,0555	 0,0555	 0,0620	-0,0693	-0,0219	-0,0343
12.06.2026 10:29:39	-0,1175	-0,1562	-0,1139	 0,0540	-0,0562	-0,0949	 0,0051	 0,0730	 0,0182	-0,1263	-0,0876	-0,0153	-0,0153	-0,0394	 0,0000	-0,0029	-0,0248	-0,0277	-0,0672	-0,0058	 0,0350	 0,0000	-0,0445	-0,0584	-0,0036	 0,2146	 0,0380	 0,0781	 0,0372	-0,0526	-0,0547	-0,0263
12.06.2026 10:29:39	-0,1226	-0,1329	-0,3190	 0,1263	-0,0460	-0,0752	 0,0650	 0,0708	 0,0504	-0,1102	-0,0759	-0,0153	-0,0255	-0,0387	 0,0000	-0,0051	-0,0336	-0,0124	-0,0679	-0,0044	 0,0365	 0,0000	-0,0387	-0,0562	-0,0007	 0,2905	 0,0467	 0,0547	 0,0299	-0,0723	-0,0518	-0,0445
12.06.2026 10:29:39	-0,1175	-0,1117	-0,1489	 0,1898	-0,0358	-0,0650	 0,0606	 0,0401	 0,0737	-0,0672	-0,0620	 0,0088	-0,0234	-0,0372	 0,0000	-0,0095	-0,0139	-0,0095	-0,0555	 0,0022	 0,0431	 0,0051	-0,0314	-0,0453	 0,0080	 0,2497	 0,0460	 0,0620	 0,0409	-0,0526	-0,0489	-0,0190
12.06.2026 10:29:39	-0,0971	-0,1117	 0,0766	 0,2110	-0,0358	-0,0474	-0,0307	 0,0380	 0,0088	-0,0642	-0,0606	 0,0088	-0,0234	-0,0423	 0,0000	-0,0044	-0,0591	-0,0102	-0,0518	 0,0022	 0,0438	 0,0051	-0,0336	-0,0423	 0,0080	 0,2869	 0,0328	 0,0642	 0,0387	-0,0380	-0,0482	 0,0015
12.06.2026 10:29:39	-0,0781	-0,1146	 0,0883	 0,1993	-0,0263	-0,0270	-0,0139	 0,0292	-0,0029	-0,0657	-0,0628	-0,0015	-0,0299	-0,0453	 0,0000	-0,0036	-0,0109	-0,0036	-0,0577	 0,0000	 0,0438	 0,0073	-0,0292	-0,0460	 0,0073	 0,3467	 0,0314	 0,0737	 0,0358	-0,0277	-0,0365	 0,0095
12.06.2026 10:29:39	-0,0861	-0,1168	-0,0365	 0,0292	-0,0482	-0,0460	-0,0095	 0,0482	 0,0679	-0,0891	-0,0664	 0,0022	-0,0299	-0,0438	 0,0000	-0,0095	-0,1102	-0,0124	-0,0599	-0,0015	 0,0394	 0,0015	-0,0380	-0,0518	 0,0029	 0,3679	-0,0139	 0,1350	-0,0175	 0,0255	-0,0905	 0,0642
12.06.2026 10:29:39	-0,0920	-0,1117	-0,2029	-0,0241	-0,0504	-0,0642	-0,0015	 0,0642	 0,0898	-0,0898	-0,0620	-0,0044	-0,0328	-0,0453	 0,0000	-0,0073	-0,1080	-0,0197	-0,0628	-0,0036	 0,0343	-0,0022	-0,0431	-0,0555	-0,0007	 0,3460	 0,0073	 0,1248	-0,0102	 0,0095	-0,0810	 0,0526
12.06.2026 10:29:39	-0,0905	-0,1153	 0,0102	 0,1219	-0,0453	-0,0431	-0,0161	 0,0431	 0,0825	-0,0730	-0,0803	 0,0000	-0,0277	-0,0467	 0,0000	-0,0058	 0,0117	-0,0109	-0,0577	 0,0000	 0,0394	 0,0036	-0,0328	-0,0496	 0,0044	 0,2847	 0,0504	 0,1007	 0,0314	-0,0146	-0,0431	 0,0460
12.06.2026 10:29:39	-0,0766	-0,1080	 0,1840	 0,2475	-0,0255	-0,0299	-0,0474	 0,0241	 0,0234	-0,0650	-0,0599	 0,0139	-0,0212	-0,0453	 0,0000	-0,0051	 0,0212	-0,0007	-0,0482	 0,0066	 0,0453	 0,0080	-0,0277	-0,0401	 0,0131	 0,2226	 0,0599	 0,0891	 0,0445	-0,0365	-0,0307	 0,0372
12.06.2026 10:29:39	-0,0788	-0,1029	 0,1241	 0,3278	-0,0241	-0,0365	-0,0190	 0,0212	-0,0175	-0,0533	-0,0518	 0,0146	-0,0204	-0,0416	 0,0000	-0,0044	-0,0577	 0,0007	-0,0482	 0,0095	 0,0467	 0,0095	-0,0270	-0,0387	 0,0153	 0,1657	 0,0606	 0,0445	 0,0431	-0,0788	-0,0321	-0,0161
12.06.2026 10:29:39	-0,0898	-0,1139	 0,0387	 0,1752	-0,0401	-0,0401	-0,0153	 0,0263	 0,0577	-0,0686	-0,0569	 0,0102	-0,0117	-0,0409	 0,0000	-0,0007	-0,0949	-0,0022	-0,0504	 0,0080	 0,0474	 0,0058	-0,0328	-0,0401	 0,0124	 0,2080	 0,0438	 0,0044	 0,0168	-0,1102	-0,0511	-0,0555
12.06.2026 10:29:39	-0,0920	-0,1292	-0,0474	-0,0328	-0,0380	-0,0489	-0,0168	 0,0555	 0,1044	-0,0891	-0,0606	 0,0022	-0,0161	-0,0474	 0,0000	 0,0000	-0,0883	-0,0146	-0,0599	 0,0000	 0,0394	-0,0015	-0,0423	-0,0467	 0,0036	 0,2402	 0,0350	-0,0146	 0,0234	-0,1241	-0,0453	-0,0861
12.06.2026 10:29:39	-0,1007	-0,1314	-0,1219	 0,1037	-0,0423	-0,0606	-0,0372	 0,0599	 0,0774	-0,0912	-0,0723	 0,0000	-0,0124	-0,0423	 0,0000	-0,0088	-0,0577	-0,0234	-0,0591	 0,0007	 0,0394	-0,0015	-0,0431	-0,0474	 0,0015	 0,1599	 0,0438	-0,0358	 0,0314	-0,1285	-0,0438	-0,0971
12.06.2026 10:29:39	-0,1022	-0,1212	-0,1380	 0,2562	-0,0336	-0,0628	 0,0248	 0,0416	 0,0182	-0,0708	-0,0635	 0,0029	-0,0182	-0,0387	 0,0000	-0,0080	 0,0372	-0,0182	-0,0533	 0,0051	 0,0467	 0,0036	-0,0358	-0,0401	 0,0088	 0,1818	 0,0759	-0,0409	 0,0423	-0,1343	-0,0387	-0,0905
12.06.2026 10:29:39	-0,0934	-0,1073	 0,0095	 0,2664	-0,0307	-0,0467	 0,0277	 0,0212	-0,0292	-0,0650	-0,0730	 0,0095	-0,0234	-0,0416	 0,0000	-0,0044	 0,0029	-0,0117	-0,0511	 0,0058	 0,0474	 0,0051	-0,0343	-0,0372	 0,0117	 0,1781	 0,0825	-0,0489	 0,0358	-0,1343	-0,0460	-0,0912
12.06.2026 10:29:39	-0,0861	-0,1044	 0,0723	 0,2643	-0,0328	-0,0438	 0,0015	 0,0182	 0,0102	-0,0635	-0,0642	 0,0066	-0,0277	-0,0401	 0,0000	-0,0066	-0,0365	-0,0109	-0,0518	 0,0088	 0,0467	 0,0066	-0,0372	-0,0394	 0,0117	 0,1234	 0,0693	-0,0715	 0,0124	-0,1496	-0,0723	-0,1058
12.06.2026 10:29:39	-0,0993	-0,1314	-0,0343	 0,1591	-0,0438	-0,0664	-0,0029	 0,0431	 0,0708	-0,0788	-0,0774	-0,0066	-0,0387	-0,0453	 0,0000	-0,0051	-0,0416	-0,0219	-0,0620	 0,0007	 0,0394	 0,0007	-0,0431	-0,0496	 0,0044	 0,1066	 0,0606	-0,0547	 0,0204	-0,1409	-0,0774	-0,1058
12.06.2026 10:29:39	-0,0978	-0,1190	-0,1007	 0,0248	-0,0496	-0,0635	-0,0212	 0,0416	 0,0445	-0,1044	-0,0708	 0,0022	-0,0277	-0,0423	 0,0000	-0,0066	-0,0657	-0,0161	-0,0569	 0,0015	 0,0423	 0,0007	-0,0409	-0,0482	 0,0036	 0,0051	 0,0613	-0,0277	 0,0146	-0,1168	-0,0693	-0,0686
12.06.2026 10:29:39	-0,0927	-0,1124	-0,1380	 0,0109	-0,0387	-0,0613	 0,0051	 0,0431	 0,0803	-0,0985	-0,0628	 0,0000	-0,0336	-0,0431	 0,0000	-0,0022	-0,0949	-0,0168	-0,0613	 0,0000	 0,0409	 0,0000	-0,0453	-0,0496	 0,0022	-0,0839	 0,0555	-0,0051	 0,0022	-0,1029	-0,0708	-0,0460
12.06.2026 10:29:39	-0,0971	-0,1226	-0,0701	 0,0474	-0,0431	-0,0606	-0,0161	 0,0314	 0,0679	-0,0942	-0,0759	-0,0015	-0,0255	-0,0453	 0,0000	-0,0007	-0,0423	-0,0241	-0,0642	-0,0015	 0,0380	-0,0015	-0,0474	-0,0504	 0,0007	-0,1701	 0,0423	-0,0109	 0,0073	-0,0956	-0,0891	-0,0489
12.06.2026 10:29:39	-0,0869	-0,1117	 0,0365	 0,1073	-0,0387	-0,0526	-0,0197	 0,0372	 0,0226	-0,0847	-0,0613	 0,0051	-0,0022	-0,0401	 0,0000	-0,0117	-0,0518	-0,0153	-0,0577	 0,0022	 0,0416	-0,0007	-0,0438	-0,0460	 0,0036	-0,1591	 0,0321	-0,0088	 0,0124	-0,0847	-0,1051	-0,0460
12.06.2026 10:29:39	-0,1029	-0,1285	-0,1745	 0,0920	-0,0467	-0,0774	-0,0029	 0,0832	 0,0708	-0,0934	-0,0737	-0,0095	-0,0022	-0,0423	 0,0000	-0,0117	-0,1372	-0,0285	-0,0693	-0,0051	 0,0321	-0,0095	-0,0577	-0,0569	-0,0066	-0,1431	 0,0117	 0,0073	-0,0066	-0,0745	-0,1248	-0,0518
12.06.2026 10:29:39	-0,0993	-0,1307	-0,1350	 0,1029	-0,0467	-0,0642	 0,0015	 0,0518	-0,0095	-0,0891	-0,0774	 0,0036	-0,0161	-0,0387	 0,0000	-0,0124	-0,0299	-0,0204	-0,0613	 0,0015	 0,0401	-0,0029	-0,0489	-0,0460	 0,0015	-0,2467	 0,0248	 0,0102	-0,0146	-0,0745	-0,1131	-0,0343
12.06.2026 10:29:39	-0,0803	-0,1219	 0,1380	 0,2599	-0,0394	-0,0226	-0,0175	-0,0051	-0,0372	-0,0708	-0,0745	 0,0212	-0,0022	-0,0328	 0,0000	-0,0102	 0,0358	-0,0051	-0,0431	 0,0139	 0,0533	 0,0088	-0,0321	-0,0285	 0,0190	-0,2862	 0,0504	 0,0102	-0,0044	-0,0810	-0,0847	-0,0416
12.06.2026 10:29:39	-0,0920	-0,1190	 0,1270	 0,2117	-0,0336	-0,0416	-0,0584	 0,0073	 0,0190	-0,0752	-0,0577	 0,0080	-0,0051	-0,0358	 0,0000	-0,0080	-0,0248	-0,0124	-0,0467	 0,0109	 0,0489	 0,0058	-0,0358	-0,0343	 0,0153	-0,2942	 0,0599	-0,0095	 0,0000	-0,1095	-0,0737	-0,0832
12.06.2026 10:29:39	-0,0993	-0,1190	-0,0248	 0,0766	-0,0372	-0,0693	-0,0051	 0,0518	 0,0255	-0,0745	-0,0664	 0,0007	-0,0226	-0,0365	 0,0000	-0,0124	-0,0285	-0,0212	-0,0599	 0,0007	 0,0409	-0,0029	-0,0460	-0,0467	 0,0036	-0,3343	 0,0679	-0,0263	 0,0080	-0,1204	-0,0737	-0,1190
12.06.2026 10:29:39	-0,0964	-0,1204	-0,1131	 0,1562	-0,0504	-0,0701	 0,0182	 0,0467	 0,0380	-0,0715	-0,0883	 0,0044	-0,0197	-0,0387	 0,0000	-0,0058	-0,0891	-0,0241	-0,0584	 0,0022	 0,0401	-0,0015	-0,0474	-0,0453	 0,0036	-0,4124	 0,0861	-0,0139	 0,0175	-0,1022	-0,0693	-0,1183
12.06.2026 10:29:39	-0,0861	-0,1153	-0,0146	 0,2270	-0,0299	-0,0540	-0,0197	 0,0131	 0,0387	-0,0730	-0,0730	 0,0139	-0,0263	-0,0387	 0,0000	-0,0058	-0,0482	-0,0146	-0,0504	 0,0088	 0,0467	 0,0058	-0,0343	-0,0387	 0,0153	-0,5343	 0,1015	-0,0073	 0,0438	-0,0832	-0,0248	-0,0876
12.06.2026 10:29:39	-0,0912	-0,1066	 0,0715	 0,2591	-0,0336	-0,0460	 0,0022	 0,0095	-0,0022	-0,0642	-0,0730	 0,0102	-0,0387	-0,0409	 0,0000	-0,0051	-0,1161	-0,0168	-0,0526	 0,0073	 0,0445	 0,0080	-0,0343	-0,0416	 0,0139	-0,6657	 0,0978	-0,0131	 0,0562	-0,0657	-0,0051	-0,0803
12.06.2026 10:29:39	-0,0847	-0,1037	 0,0854	 0,2591	-0,0270	-0,0445	-0,0226	 0,0102	-0,0044	-0,0752	-0,0474	 0,0124	-0,0372	-0,0431	 0,0000	-0,0051	-0,1270	-0,0131	-0,0504	 0,0088	 0,0460	 0,0095	-0,0343	-0,0401	 0,0161	-0,7884	 0,1029	 0,0022	 0,0599	-0,0577	 0,0000	-0,0715
12.06.2026 10:29:39	-0,0847	-0,1190	 0,0277	 0,1956	-0,0372	-0,0438	-0,0182	 0,0197	 0,0073	-0,0825	-0,0511	 0,0124	-0,0182	-0,0416	 0,0000	-0,0051	 0,0825	-0,0146	-0,0504	 0,0073	 0,0467	 0,0088	-0,0285	-0,0409	 0,0175	-0,8095	 0,0985	 0,0022	 0,0518	-0,0657	 0,0117	-0,0847
12.06.2026 10:29:39	-0,0883	-0,1110	 0,0219	 0,1818	-0,0526	-0,0467	-0,0263	 0,0175	 0,0299	-0,0737	-0,0642	 0,0080	-0,0212	-0,0445	 0,0000	-0,0007	-0,0182	-0,0146	-0,0533	 0,0044	 0,0453	 0,0066	-0,0292	-0,0423	 0,0146	-0,8249	 0,0861	 0,0015	 0,0431	-0,0781	-0,0102	-0,1044
12.06.2026 10:29:39	-0,0810	-0,1088	-0,0015	 0,1898	-0,0387	-0,0511	-0,1058	 0,0248	 0,0540	-0,0774	-0,0562	 0,0182	-0,0161	-0,0416	 0,0000	-0,0044	-0,0555	-0,0102	-0,0511	 0,0051	 0,0445	 0,0051	-0,0307	-0,0409	 0,0131	-0,9285	 0,0869	-0,0051	 0,0672	-0,0861	-0,0015	-0,0949
12.06.2026 10:29:39	-0,0832	-0,1219	-0,1183	 0,0708	-0,0467	-0,0650	-0,0307	 0,0489	 0,0482	-0,0891	-0,0701	 0,0124	-0,0314	-0,0460	 0,0000	-0,0044	-0,0022	-0,0175	-0,0577	 0,0015	 0,0409	 0,0022	-0,0336	-0,0453	 0,0088	-0,9512	 0,0562	 0,0036	 0,0365	-0,0818	-0,0234	-0,0810
12.06.2026 10:29:39	-0,0832	-0,1131	-0,0679	 0,0307	-0,0328	-0,0599	 0,0241	 0,0380	 0,0745	-0,0927	-0,0577	-0,0007	-0,0197	-0,0482	 0,0000	 0,0000	-0,0474	-0,0146	-0,0650	 0,0000	 0,0401	 0,0044	-0,0336	-0,0489	 0,0088	-0,9490	 0,0861	-0,0234	 0,0416	-0,1219	-0,0139	-0,1183
12.06.2026 10:29:39	-0,0905	-0,1131	-0,0161	 0,1336	-0,0204	-0,0584	-0,0007	 0,0270	 0,0263	-0,0818	-0,0569	 0,0080	 0,0124	-0,0387	 0,0000	 0,0000	-0,0467	-0,0102	-0,0584	 0,0044	 0,0431	 0,0066	-0,0307	-0,0460	 0,0124	-0,9942	 0,1409	-0,0818	 0,0854	-0,1628	 0,0277	-0,1730
12.06.2026 10:29:39	-0,1044	-0,1161	-0,0467	 0,1840	-0,0328	-0,0650	-0,0168	 0,0168	 0,0029	-0,0854	-0,0657	 0,0168	 0,0036	-0,0380	 0,0000	-0,0015	-0,0562	-0,0066	-0,0518	 0,0073	 0,0453	 0,0073	-0,0277	-0,0409	 0,0153	-1,0395	 0,1007	-0,0905	 0,0686	-0,1409	 0,0109	-0,1803
12.06.2026 10:29:39	-0,1022	-0,1183	 0,0029	 0,2059	-0,0496	-0,0599	-0,0401	 0,0182	 0,0270	-0,0708	-0,0606	 0,0095	-0,0241	-0,0401	 0,0000	-0,0036	-0,0788	-0,0080	-0,0533	 0,0058	 0,0438	 0,0051	-0,0299	-0,0460	 0,0117	-1,1067	 0,0905	-0,0854	 0,0628	-0,1277	 0,0204	-0,1453
12.06.2026 10:29:39	-0,0869	-0,1161	-0,0285	 0,2051	-0,0423	-0,0577	-0,0212	 0,0263	 0,0015	-0,0759	-0,0620	 0,0095	-0,0555	-0,0438	 0,0000	-0,0066	 0,0066	-0,0088	-0,0569	 0,0022	 0,0423	 0,0051	-0,0277	-0,0482	 0,0124	-1,1745	 0,0905	-0,0650	 0,0628	-0,1058	 0,0146	-0,1037
12.06.2026 10:29:39	-0,0876	-0,1073	-0,0642	 0,2197	-0,0277	-0,0526	-0,0314	 0,0241	 0,0007	-0,0803	-0,0642	 0,0161	-0,0387	-0,0423	 0,0000	-0,0007	-0,0394	-0,0102	-0,0504	 0,0058	 0,0431	 0,0058	-0,0307	-0,0431	 0,0139	-1,2227	 0,0657	-0,0869	 0,0628	-0,0985	 0,0146	-0,1080
12.06.2026 10:29:39	-0,0832	-0,1007	-0,2132	 0,1263	-0,0365	-0,0642	 0,0314	 0,0299	 0,0080	-0,0745	-0,0599	 0,0124	-0,0226	-0,0372	 0,0000	-0,0036	-0,1467	-0,0124	-0,0526	 0,0058	 0,0416	 0,0022	-0,0365	-0,0438	 0,0109	-1,1592	 0,0620	-0,0847	 0,0555	-0,1175	 0,0000	-0,1204
12.06.2026 10:29:39	-0,0869	-0,1131	-0,2124	 0,0569	-0,0416	-0,0679	 0,0650	 0,0409	 0,0555	-0,1037	-0,0781	 0,0131	-0,0190	-0,0380	 0,0000	-0,0088	-0,0321	-0,0153	-0,0540	 0,0044	 0,0387	 0,0007	-0,0358	-0,0431	 0,0095	-1,1045	 0,0599	-0,0854	 0,0394	-0,1263	-0,0358	-0,1336
12.06.2026 10:29:39	-0,0876	-0,1248	 0,0657	 0,1234	-0,0423	-0,0547	-0,0358	 0,0299	 0,1219	-0,1022	-0,0839	 0,0161	-0,0219	-0,0423	 0,0000	-0,0007	 0,0051	-0,0146	-0,0496	 0,0058	 0,0416	 0,0044	-0,0336	-0,0380	 0,0117	-1,1621	 0,0482	-0,0905	 0,0321	-0,1329	-0,0474	-0,1292
12.06.2026 10:29:39	-0,0752	-0,1146	 0,1088	 0,1511	-0,0307	-0,0591	-0,0723	 0,0219	 0,0832	-0,0788	-0,0686	 0,0124	-0,0146	-0,0409	 0,0000	-0,0015	-0,0022	-0,0051	-0,0511	 0,0102	 0,0453	 0,0088	-0,0263	-0,0372	 0,0168	-1,1504	 0,0606	-0,0723	 0,0292	-0,1241	-0,0380	-0,1095
12.06.2026 10:29:39	-0,0766	-0,1131	 0,0650	 0,1409	-0,0307	-0,0533	-0,0387	 0,0219	 0,0022	-0,0708	-0,0723	 0,0255	-0,0058	-0,0336	 0,0000	-0,0080	-0,0029	-0,0022	-0,0423	 0,0146	 0,0474	 0,0095	-0,0241	-0,0321	 0,0197	-1,0826	 0,0832	-0,0869	 0,0365	-0,1343	-0,0109	-0,1314
12.06.2026 10:29:39	-0,0737	-0,1073	 0,0350	 0,1365	-0,0453	-0,0431	-0,0117	 0,0358	-0,0146	-0,0664	-0,0482	 0,0285	-0,0182	-0,0358	 0,0000	-0,0088	-0,0277	 0,0000	-0,0409	 0,0131	 0,0453	 0,0073	-0,0270	-0,0307	 0,0204	-1,0665	 0,0942	-0,1022	 0,0431	-0,1562	-0,0161	-0,1657
12.06.2026 10:29:39	-0,0788	-0,1124	 0,0401	 0,1569	-0,0467	-0,0511	-0,0161	 0,0321	 0,0328	-0,0730	-0,0511	 0,0161	-0,0088	-0,0372	 0,0000	-0,0051	-0,0628	-0,0029	-0,0445	 0,0117	 0,0431	 0,0058	-0,0314	-0,0358	 0,0168	-1,0804	 0,0912	-0,1124	 0,0409	-0,1496	-0,0380	-0,1540
12.06.2026 10:29:39	-0,0912	-0,1321	-0,0642	 0,1175	-0,0343	-0,0664	-0,0007	 0,0401	 0,0307	-0,0898	-0,0752	 0,0161	-0,0080	-0,0387	 0,0000	-0,0073	-0,0810	-0,0124	-0,0474	 0,0088	 0,0380	 0,0000	-0,0401	-0,0401	 0,0095	-1,1191	 0,0883	-0,1073	 0,0474	-0,1372	-0,0182	-0,1277
12.06.2026 10:29:39	-0,0993	-0,1299	-0,1197	 0,1321	-0,0328	-0,0620	 0,0102	 0,0620	-0,0022	-0,0912	-0,0664	 0,0153	-0,0234	-0,0416	 0,0000	-0,0080	-0,0219	-0,0139	-0,0504	 0,0066	 0,0372	 0,0000	-0,0423	-0,0401	 0,0095	-1,1796	 0,0876	-0,1080	 0,0555	-0,1270	-0,0015	-0,1350
12.06.2026 10:29:39	-0,0839	-0,1102	 0,0365	 0,2694	-0,0314	-0,0394	-0,0285	 0,0124	 0,0102	-0,0672	-0,0628	 0,0248	-0,0190	-0,0372	 0,0000	-0,0058	-0,0182	-0,0058	-0,0409	 0,0139	 0,0460	 0,0066	-0,0336	-0,0307	 0,0182	-1,2351	 0,0701	-0,1000	 0,0438	-0,1139	-0,0190	-0,1175
12.06.2026 10:29:39	-0,0730	-0,0993	 0,0401	 0,2745	-0,0263	-0,0416	-0,0197	 0,0153	 0,0088	-0,0628	-0,0562	 0,0270	-0,0088	-0,0394	 0,0000	-0,0051	-0,0197	-0,0066	-0,0431	 0,0131	 0,0467	 0,0044	-0,0336	-0,0292	 0,0182	-1,1687	 0,0759	-0,0730	 0,0467	-0,1058	-0,0285	-0,1051
12.06.2026 10:29:39	-0,0891	-0,1000	-0,0489	 0,1942	-0,0292	-0,0547	-0,0350	 0,0314	 0,0285	-0,0766	-0,0679	 0,0139	-0,0263	-0,0372	 0,0000	-0,0058	-0,0380	-0,0117	-0,0482	 0,0102	 0,0453	 0,0036	-0,0350	-0,0328	 0,0139	-1,1249	 0,0781	-0,0701	 0,0577	-0,1080	-0,0380	-0,1394
12.06.2026 10:29:39	-0,0934	-0,1095	-0,0161	 0,1584	-0,0321	-0,0547	 0,0000	 0,0248	 0,0453	-0,0745	-0,0686	 0,0117	-0,0197	-0,0372	 0,0000	-0,0022	-0,1161	-0,0153	-0,0467	 0,0109	 0,0445	 0,0051	-0,0365	-0,0321	 0,0139	-1,1848	 0,0832	-0,0650	 0,0489	-0,1007	-0,0489	-0,1256
12.06.2026 10:29:39	-0,0956	-0,1117	 0,0328	 0,1015	-0,0584	-0,0489	 0,0066	 0,0358	 0,0277	-0,0752	-0,0606	 0,0182	-0,0015	-0,0401	 0,0000	-0,0015	-0,0394	-0,0146	-0,0460	 0,0139	 0,0453	 0,0051	-0,0365	-0,0292	 0,0146	-1,1329	 0,1022	-0,0555	 0,0569	-0,0927	-0,0518	-0,1037
12.06.2026 10:29:39	-0,0854	-0,1037	-0,0431	 0,1394	-0,0350	-0,0445	-0,0387	 0,0212	 0,0365	-0,0825	-0,0606	 0,0204	-0,0234	-0,0394	 0,0000	-0,0029	-0,1080	-0,0066	-0,0416	 0,0168	 0,0504	 0,0088	-0,0336	-0,0241	 0,0182	-1,0556	 0,1146	-0,0540	 0,0657	-0,1051	-0,0467	-0,1117
12.06.2026 10:29:39	-0,0774	-0,1153	-0,0796	 0,2139	-0,0255	-0,0526	-0,0314	 0,0131	 0,0299	-0,0825	-0,0555	 0,0204	-0,0277	-0,0387	 0,0000	 0,0000	-0,1051	-0,0102	-0,0409	 0,0168	 0,0511	 0,0080	-0,0343	-0,0248	 0,0204	-1,0205	 0,1073	-0,0628	 0,0533	-0,1153	-0,0445	-0,1423
12.06.2026 10:29:39	-0,1007	-0,1248	-0,0693	 0,0912	-0,0504	-0,0606	-0,0007	 0,0438	 0,0496	-0,1102	-0,0693	 0,0197	-0,0234	-0,0394	 0,0000	-0,0058	-0,0058	-0,0204	-0,0423	 0,0139	 0,0467	 0,0036	-0,0350	-0,0263	 0,0153	-1,0103	 0,0876	-0,0723	 0,0314	-0,1234	-0,0547	-0,1628
12.06.2026 10:29:39	-0,1066	-0,1139	-0,0241	 0,0861	-0,0387	-0,0628	-0,0080	 0,0409	 0,0613	-0,1037	-0,0715	 0,0080	-0,0299	-0,0453	 0,0000	 0,0000	-0,0774	-0,0168	-0,0482	 0,0109	 0,0445	 0,0058	-0,0372	-0,0321	 0,0124	-1,0453	 0,0766	-0,0533	 0,0088	-0,1131	-0,0496	-0,1343
12.06.2026 10:29:39	-0,0898	-0,1073	 0,0708	 0,2044	-0,0365	-0,0591	-0,0504	 0,0080	 0,0073	-0,0708	-0,0613	 0,0248	-0,0219	-0,0416	 0,0000	 0,0000	 0,0255	-0,0139	-0,0416	 0,0175	 0,0511	 0,0131	-0,0299	-0,0248	 0,0226	-1,0643	 0,0613	-0,0489	 0,0153	-0,1110	-0,0234	-0,1292
12.06.2026 10:29:39	-0,0854	-0,1139	 0,0898	 0,2321	-0,0387	-0,0533	-0,0285	 0,0117	-0,0029	-0,0708	-0,0635	 0,0255	-0,0263	-0,0409	 0,0000	-0,0044	-0,0058	-0,0190	-0,0387	 0,0168	 0,0526	 0,0117	-0,0314	-0,0219	 0,0226	-1,0709	 0,0599	-0,0628	 0,0131	-0,1029	-0,0102	-0,1248
12.06.2026 10:29:39	-0,0825	-0,1153	 0,0307	 0,2467	-0,0350	-0,0613	-0,0774	 0,0102	 0,0066	-0,0672	-0,0672	 0,0066	-0,0241	-0,0423	 0,0000	-0,0029	-0,0387	-0,0197	-0,0445	 0,0139	 0,0504	 0,0117	-0,0343	-0,0285	 0,0197	-0,9767	 0,0569	-0,0708	 0,0029	-0,0912	-0,0058	-0,1168
12.06.2026 10:29:39	-0,0818	-0,1204	-0,0139	 0,0635	-0,0562	-0,0810	-0,0606	 0,0270	 0,0591	-0,0839	-0,0664	 0,0007	-0,0168	-0,0423	 0,0000	-0,0036	-0,1022	-0,0255	-0,0526	 0,0095	 0,0467	 0,0073	-0,0423	-0,0336	 0,0131	-0,8789	 0,0723	-0,0555	 0,0095	-0,0854	-0,0051	-0,1015
12.06.2026 10:29:39	-0,0869	-0,1314	-0,1518	-0,0146	-0,0723	-0,0818	-0,0226	 0,0474	 0,0518	-0,1073	-0,0737	-0,0058	-0,0241	-0,0431	 0,0000	-0,0029	-0,2175	-0,0255	-0,0599	 0,0044	 0,0423	 0,0000	-0,0533	-0,0401	 0,0066	-0,8891	 0,0949	-0,0533	 0,0124	-0,0839	-0,0007	-0,0781
12.06.2026 10:29:39	-0,0861	-0,1343	-0,2431	 0,0752	-0,0533	-0,0715	 0,0073	 0,0489	 0,0504	-0,1175	-0,0876	-0,0044	-0,0197	-0,0416	 0,0000	-0,0066	 0,0088	-0,0285	-0,0584	 0,0058	 0,0423	 0,0000	-0,0482	-0,0387	 0,0073	-0,8168	 0,0978	-0,0496	 0,0263	-0,0803	 0,0015	-0,0730
12.06.2026 10:29:39	-0,0934	-0,1409	-0,0409	 0,1139	-0,0372	-0,0686	 0,0080	 0,0409	 0,0555	-0,1073	-0,0898	-0,0066	-0,0270	-0,0445	 0,0000	-0,0088	 0,0409	-0,0277	-0,0584	 0,0051	 0,0445	 0,0015	-0,0460	-0,0401	 0,0073	-0,7044	 0,0971	-0,0314	 0,0292	-0,0635	-0,0015	-0,0657
12.06.2026 10:29:39	-0,1007	-0,1307	 0,0635	 0,2146	-0,0328	-0,0562	-0,0139	 0,0190	 0,0095	-0,0810	-0,0854	 0,0036	-0,0343	-0,0431	 0,0000	-0,0044	-0,0248	-0,0190	-0,0526	 0,0102	 0,0482	 0,0073	-0,0423	-0,0343	 0,0124	-0,6307	 0,0898	-0,0190	 0,0314	-0,0664	 0,0000	-0,0693
12.06.2026 10:29:39	-0,0978	-0,1131	 0,0358	 0,2438	-0,0372	-0,0453	 0,0248	 0,0234	-0,0029	-0,0803	-0,0686	 0,0073	-0,0336	-0,0431	 0,0000	-0,0058	-0,0401	-0,0212	-0,0496	 0,0109	 0,0496	 0,0073	-0,0431	-0,0328	 0,0117	-0,6015	 0,0803	-0,0124	 0,0248	-0,0584	-0,0058	-0,0650
12.06.2026 10:29:39	-0,0927	-0,1051	 0,0708	 0,1927	-0,0343	-0,0555	-0,1095	 0,0161	 0,0190	-0,0701	-0,0591	 0,0088	-0,0197	-0,0423	 0,0000	-0,0073	-0,0635	-0,0153	-0,0496	 0,0102	 0,0504	 0,0073	-0,0423	-0,0350	 0,0117	-0,6227	 0,0796	-0,0248	 0,0197	-0,0569	 0,0139	-0,0526
12.06.2026 10:29:39	-0,0861	-0,1110	 0,0438	 0,1394	-0,0416	-0,0745	-0,0869	 0,0263	 0,0029	-0,0781	-0,0708	 0,0073	-0,0234	-0,0453	 0,0000	-0,0073	-0,0175	-0,0168	-0,0496	 0,0095	 0,0482	 0,0088	-0,0394	-0,0365	 0,0117	-0,6424	 0,0839	-0,0161	 0,0299	-0,0504	 0,0336	-0,0438
12.06.2026 10:29:39	-0,0788	-0,1219	 0,0022	 0,0876	-0,0423	-0,0693	 0,0139	 0,0314	 0,0234	-0,1007	-0,0766	 0,0022	-0,0314	-0,0496	 0,0000	-0,0095	-0,0299	-0,0219	-0,0547	 0,0066	 0,0453	 0,0044	-0,0460	-0,0416	 0,0080	-0,6650	 0,0774	-0,0241	 0,0321	-0,0423	 0,0350	-0,0431
12.06.2026 10:29:39	-0,0796	-0,1226	 0,0255	 0,1402	-0,0482	-0,0504	-0,0489	 0,0146	 0,0307	-0,0912	-0,0745	 0,0124	-0,0117	-0,0438	 0,0000	-0,0073	-0,0226	-0,0212	-0,0467	 0,0117	 0,0489	 0,0058	-0,0431	-0,0343	 0,0102	-0,5687	 0,0672	-0,0343	 0,0241	-0,0555	 0,0307	-0,0693
12.06.2026 10:29:39	-0,0898	-0,1204	 0,0496	 0,2190	-0,0496	-0,0504	-0,0270	 0,0226	-0,0153	-0,0883	-0,0832	 0,0124	-0,0255	-0,0453	 0,0000	-0,0058	-0,0270	-0,0212	-0,0438	 0,0109	 0,0496	 0,0073	-0,0401	-0,0328	 0,0095	-0,4686	 0,0540	-0,0460	 0,0234	-0,0708	 0,0080	-0,0985
12.06.2026 10:29:39	-0,0832	-0,1131	 0,0489	 0,2460	-0,0307	-0,0489	-0,0234	 0,0153	 0,0000	-0,0737	-0,0803	 0,0168	-0,0372	-0,0445	 0,0000	-0,0080	-0,0292	-0,0124	-0,0431	 0,0109	 0,0511	 0,0080	-0,0380	-0,0307	 0,0102	-0,4716	 0,0285	-0,0540	 0,0182	-0,0766	-0,0036	-0,0796
12.06.2026 10:29:39	-0,0839	-0,1153	-0,0197	 0,1942	-0,0511	-0,0547	-0,0080	 0,0168	 0,0117	-0,0745	-0,0613	 0,0153	-0,0292	-0,0431	 0,0000	-0,0073	-0,1854	-0,0131	-0,0431	 0,0117	 0,0504	 0,0066	-0,0445	-0,0292	 0,0066	-0,3986	 0,0153	-0,0394	 0,0036	-0,0752	-0,0226	-0,0642
12.06.2026 10:29:39	-0,0927	-0,1234	-0,1219	 0,0810	-0,0540	-0,0723	 0,0036	 0,0314	 0,0197	-0,0993	-0,0657	-0,0058	-0,0328	-0,0474	 0,0000	-0,0029	-0,1708	-0,0234	-0,0547	 0,0058	 0,0431	 0,0007	-0,0533	-0,0394	-0,0007	-0,2935	 0,0139	-0,0307	-0,0102	-0,0679	-0,0416	-0,0664
12.06.2026 10:29:39	-0,0942	-0,1292	-0,0606	 0,1336	-0,0365	-0,0650	-0,0146	 0,0314	-0,0058	-0,0825	-0,0766	 0,0088	-0,0204	-0,0445	 0,0000	-0,0058	 0,0270	-0,0204	-0,0511	 0,0095	 0,0474	 0,0051	-0,0445	-0,0365	 0,0051	-0,2307	 0,0139	-0,0336	-0,0219	-0,0635	-0,0453	-0,0766
12.06.2026 10:29:39	-0,1029	-0,1234	 0,0270	 0,1745	-0,0409	-0,0577	-0,0307	 0,0131	 0,0431	-0,0832	-0,0766	 0,0095	-0,0124	-0,0460	 0,0000	-0,0051	 0,0277	-0,0197	-0,0511	 0,0117	 0,0496	 0,0073	-0,0401	-0,0358	 0,0088	-0,2022	 0,0277	-0,0372	-0,0197	-0,0657	-0,0394	-0,0796
12.06.2026 10:29:39	-0,1029	-0,1161	 0,0044	 0,1146	-0,0460	-0,0664	-0,0810	 0,0234	 0,0547	-0,0978	-0,0737	-0,0073	-0,0423	-0,0482	 0,0000	-0,0044	-0,0285	-0,0204	-0,0547	 0,0066	 0,0460	 0,0044	-0,0460	-0,0416	 0,0044	-0,2234	 0,0153	-0,0409	-0,0182	-0,0781	-0,0409	-0,0715
12.06.2026 10:29:39	-0,1058	-0,1219	 0,0088	 0,1183	-0,0613	-0,0708	-0,0635	 0,0372	 0,0080	-0,0934	-0,0788	 0,0000	-0,0467	-0,0482	 0,0000	-0,0073	-0,0241	-0,0197	-0,0547	 0,0051	 0,0460	 0,0036	-0,0467	-0,0438	 0,0044	-0,2460	 0,0234	-0,0453	-0,0139	-0,0825	-0,0460	-0,0832
12.06.2026 10:29:39	-0,1022	-0,1175	 0,0212	 0,1847	-0,0540	-0,0672	-0,0051	 0,0241	 0,0080	-0,0883	-0,0766	-0,0015	-0,0423	-0,0467	 0,0000	-0,0073	-0,0737	-0,0212	-0,0547	 0,0073	 0,0467	 0,0044	-0,0474	-0,0423	 0,0044	-0,2445	 0,0416	-0,0255	 0,0131	-0,0577	-0,0358	-0,0672
12.06.2026 10:29:39	-0,1044	-0,1088	 0,0175	 0,2110	-0,0431	-0,0730	-0,0423	 0,0139	 0,0263	-0,0869	-0,0686	 0,0073	-0,0358	-0,0460	 0,0000	-0,0044	-0,1226	-0,0175	-0,0526	 0,0080	 0,0474	 0,0051	-0,0489	-0,0394	 0,0066	-0,1920	 0,0460	-0,0212	 0,0328	-0,0526	-0,0321	-0,0460
12.06.2026 10:29:39	-0,1212	-0,1256	-0,0869	 0,1314	-0,0606	-0,0905	-0,0088	 0,0234	 0,0839	-0,1015	-0,0825	-0,0036	-0,0314	-0,0482	 0,0000	-0,0022	-0,0131	-0,0241	-0,0613	 0,0007	 0,0423	 0,0015	-0,0496	-0,0482	 0,0022	-0,1037	 0,0628	-0,0423	 0,0277	-0,0569	-0,0365	-0,0489
12.06.2026 10:29:39	-0,1044	-0,1292	-0,1723	 0,0876	-0,0562	-0,0861	 0,0124	 0,0350	 0,0708	-0,0956	-0,0723	-0,0102	-0,0307	-0,0467	 0,0000	-0,0058	-0,1708	-0,0234	-0,0613	 0,0000	 0,0416	 0,0000	-0,0526	-0,0474	 0,0015	-0,0781	 0,0642	-0,0453	 0,0460	-0,0496	-0,0387	-0,0482
12.06.2026 10:29:39	-0,0876	-0,1321	-0,0584	-0,0343	-0,0693	-0,0715	-0,0912	 0,0482	 0,0146	-0,1204	-0,0832	 0,0000	-0,0263	-0,0482	 0,0000	-0,0044	-0,1606	-0,0270	-0,0569	 0,0022	 0,0423	-0,0007	-0,0518	-0,0445	 0,0022	-0,0175	 0,0781	-0,0277	 0,0569	-0,0584	-0,0234	-0,0577
12.06.2026 10:29:39	-0,0942	-0,1431	 0,0577	-0,1204	-0,0672	-0,0664	-0,0219	 0,0533	 0,0912	-0,1314	-0,1044	-0,0088	-0,0453	-0,0533	 0,0000	 0,0029	 0,0029	-0,0380	-0,0620	-0,0015	 0,0401	-0,0036	-0,0547	-0,0489	-0,0029	 0,0766	 0,0825	-0,0336	 0,0540	-0,0715	-0,0095	-0,0759
12.06.2026 10:29:39	-0,0912	-0,1292	-0,0080	 0,0182	-0,0401	-0,0620	-0,0328	 0,0146	 0,0788	-0,1175	-0,0752	 0,0015	-0,0409	-0,0489	 0,0000	 0,0015	-0,0328	-0,0285	-0,0584	 0,0036	 0,0431	 0,0015	-0,0474	-0,0431	 0,0022	 0,1226	 0,0920	-0,0394	 0,0628	-0,0810	-0,0146	-0,0876
12.06.2026 10:29:39	-0,0898	-0,1343	-0,1226	 0,1219	-0,0489	-0,0781	-0,0526	 0,0263	 0,0022	-0,1095	-0,0752	 0,0073	-0,0372	-0,0431	 0,0000	-0,0073	-0,0533	-0,0263	-0,0547	 0,0051	 0,0431	 0,0015	-0,0453	-0,0409	 0,0066	 0,1336	 0,1183	-0,0321	 0,0861	-0,1022	-0,0051	-0,0905
12.06.2026 10:29:39	-0,0905	-0,1307	-0,0496	 0,1905	-0,0533	-0,0766	 0,0109	 0,0416	 0,0263	-0,0745	-0,0869	-0,0015	-0,0343	-0,0445	 0,0000	-0,0058	-0,0518	-0,0307	-0,0562	 0,0044	 0,0453	 0,0022	-0,0474	-0,0416	 0,0073	 0,0825	 0,1314	-0,0380	 0,1066	-0,0949	 0,0139	-0,0686
12.06.2026 10:29:39	-0,0898	-0,1066	 0,0876	 0,2584	-0,0416	-0,0672	-0,0788	 0,0095	-0,0161	-0,0752	-0,0650	-0,0029	-0,0234	-0,0409	 0,0000	-0,0051	 0,0000	-0,0212	-0,0540	 0,0080	 0,0482	 0,0088	-0,0365	-0,0387	 0,0131	 0,0350	 0,1292	-0,0467	 0,1073	-0,0752	 0,0161	-0,0650
12.06.2026 10:29:39	-0,1029	-0,1241	-0,0482	 0,0672	-0,0518	-0,1022	-0,0467	 0,0248	-0,0153	-0,0942	-0,0650	-0,0022	-0,0307	-0,0416	 0,0000	-0,0036	-0,1701	-0,0248	-0,0599	 0,0000	 0,0394	 0,0015	-0,0511	-0,0438	 0,0051	 0,0058	 0,1270	-0,0453	 0,1204	-0,0599	 0,0197	-0,0591
12.06.2026 10:29:39	-0,1190	-0,1518	-0,1694	-0,2197	-0,0686	-0,1058	 0,0139	 0,0869	 0,0818	-0,1124	-0,1102	-0,0044	-0,0328	-0,0504	 0,0000	-0,0029	-0,0701	-0,0445	-0,0642	-0,0051	 0,0328	-0,0073	-0,0635	-0,0496	-0,0036	 0,0839	 0,1394	-0,0562	 0,1329	-0,0708	 0,0555	-0,0781
12.06.2026 10:29:39	-0,1029	-0,1197	 0,0292	 0,0182	-0,0482	-0,0555	-0,0555	 0,0431	 0,0453	-0,0912	-0,0832	-0,0080	 0,0000	-0,0460	 0,0000	-0,0058	 0,0730	-0,0212	-0,0599	 0,0044	 0,0445	 0,0044	-0,0416	-0,0423	 0,0109	 0,1599	 0,1241	-0,0511	 0,1183	-0,0876	 0,0409	-0,0964
12.06.2026 10:29:39	-0,0810	-0,0912	 0,0854	 0,3796	-0,0336	-0,0277	-0,0584	-0,0139	-0,0438	-0,0591	-0,0511	-0,0007	 0,0036	-0,0387	 0,0000	-0,0073	-0,0190	-0,0029	-0,0518	 0,0146	 0,0540	 0,0139	-0,0314	-0,0321	 0,0212	 0,1117	 0,1175	-0,0409	 0,1277	-0,0869	 0,0365	-0,0832
12.06.2026 10:29:39	-0,0752	-0,0971	 0,0796	 0,3913	-0,0423	-0,0387	-0,0314	 0,0080	-0,0372	-0,0620	-0,0628	 0,0088	-0,0431	-0,0416	 0,0000	-0,0095	-0,0036	-0,0058	-0,0482	 0,0139	 0,0533	 0,0117	-0,0328	-0,0299	 0,0219	 0,1416	 0,1168	-0,0453	 0,1299	-0,0934	 0,0489	-0,0774
12.06.2026 10:29:39	-0,0869	-0,1051	 0,1066	 0,3029	-0,0372	-0,0409	-0,0328	 0,0088	-0,0219	-0,0657	-0,0606	 0,0102	-0,0453	-0,0445	 0,0000	-0,0044	-0,0533	-0,0036	-0,0518	 0,0117	 0,0526	 0,0117	-0,0350	-0,0307	 0,0212	 0,2102	 0,0599	 0,0314	 0,0737	-0,0175	-0,0131	 0,0139
12.06.2026 10:29:39	-0,0927	-0,1183	 0,0533	 0,1657	-0,0489	-0,0482	-0,0343	 0,0175	 0,0314	-0,0759	-0,0788	 0,0051	-0,0190	-0,0474	 0,0000	 0,0000	-0,0650	-0,0153	-0,0518	 0,0088	 0,0489	 0,0088	-0,0416	-0,0336	 0,0146	 0,2234	 0,0496	 0,0453	 0,0657	 0,0073	-0,0080	 0,0139
12.06.2026 10:29:39	-0,0810	-0,1241	 0,0058	 0,1219	-0,0613	-0,0547	-0,0234	 0,0161	 0,0526	-0,0883	-0,0832	 0,0073	-0,0204	-0,0467	 0,0000	-0,0036	-0,0175	-0,0182	-0,0496	 0,0080	 0,0474	 0,0058	-0,0401	-0,0358	 0,0146	 0,1920	 0,0818	-0,0036	 0,1051	-0,0365	 0,0270	-0,0474
12.06.2026 10:29:39	-0,0818	-0,1307	-0,0788	 0,1124	-0,0438	-0,0569	-0,0088	 0,0372	 0,0212	-0,0934	-0,0788	 0,0073	-0,0409	-0,0467	 0,0000	-0,0058	-0,0241	-0,0182	-0,0533	 0,0051	 0,0431	 0,0029	-0,0423	-0,0380	 0,0095	 0,1212	 0,1044	-0,0197	 0,1212	-0,0511	 0,0401	-0,0380
12.06.2026 10:29:39	-0,0869	-0,1285	-0,0401	 0,1168	-0,0409	-0,0620	-0,0117	 0,0401	 0,0248	-0,0898	-0,0730	-0,0015	-0,0489	-0,0482	 0,0000	-0,0051	-0,0350	-0,0175	-0,0518	 0,0036	 0,0423	 0,0036	-0,0438	-0,0401	 0,0080	 0,0423	 0,1234	-0,0533	 0,1329	-0,0752	 0,0664	-0,0642
12.06.2026 10:29:39	-0,0985	-0,1175	 0,0088	 0,1840	-0,0453	-0,0613	-0,0277	 0,0255	 0,0292	-0,0861	-0,0679	-0,0015	-0,0321	-0,0482	 0,0000	-0,0044	-0,0336	-0,0139	-0,0547	 0,0058	 0,0453	 0,0058	-0,0409	-0,0416	 0,0102	-0,0328	 0,1314	-0,0715	 0,1445	-0,0934	 0,0664	-0,0942
12.06.2026 10:29:39	-0,0942	-0,1131	 0,0350	 0,1993	-0,0438	-0,0613	-0,0219	 0,0321	 0,0226	-0,0861	-0,0672	 0,0007	-0,0131	-0,0453	 0,0000	-0,0036	-0,0292	-0,0131	-0,0540	 0,0080	 0,0467	 0,0066	-0,0401	-0,0387	 0,0102	 0,0190	 0,1358	-0,0796	 0,1453	-0,1117	 0,0533	-0,0978
12.06.2026 10:29:39	-0,0861	-0,1044	 0,0642	 0,2161	-0,0489	-0,0555	-0,0263	 0,0168	 0,0102	-0,0796	-0,0562	 0,0102	-0,0102	-0,0409	 0,0000	-0,0029	-0,0416	-0,0124	-0,0460	 0,0131	 0,0518	 0,0102	-0,0358	-0,0314	 0,0168	 0,0642	 0,1299	-0,0774	 0,1496	-0,1212	 0,0438	-0,0993
12.06.2026 10:29:39	-0,0934	-0,0978	 0,0219	 0,2153	-0,0431	-0,0584	-0,0270	 0,0117	 0,0058	-0,0745	-0,0584	 0,0088	-0,0336	-0,0416	 0,0000	-0,0022	-0,0613	-0,0080	-0,0489	 0,0131	 0,0533	 0,0124	-0,0328	-0,0314	 0,0190	-0,0109	 0,1277	-0,0591	 0,1518	-0,1051	 0,0431	-0,0839
12.06.2026 10:29:39	-0,0883	-0,1139	-0,0307	 0,1708	-0,0372	-0,0715	-0,0161	 0,0204	 0,0358	-0,0832	-0,0693	 0,0073	-0,0569	-0,0460	 0,0000	 0,0000	-0,0620	-0,0088	-0,0504	 0,0102	 0,0533	 0,0109	-0,0358	-0,0328	 0,0168	-0,0080	 0,1146	-0,0365	 0,1445	-0,0818	 0,0321	-0,0562
12.06.2026 10:29:39	-0,0869	-0,1336	-0,0759	 0,1161	-0,0453	-0,0781	-0,0584	 0,0350	 0,0401	-0,0861	-0,0825	 0,0036	-0,0467	-0,0489	 0,0000	 0,0007	-0,0818	-0,0153	-0,0533	 0,0088	 0,0511	 0,0088	-0,0380	-0,0358	 0,0131	 0,0343	 0,1088	-0,0358	 0,1431	-0,0737	 0,0124	-0,0591
12.06.2026 10:29:39	-0,0832	-0,1292	-0,0708	 0,1044	-0,0482	-0,0686	 0,0241	 0,0431	 0,0161	-0,0898	-0,0883	 0,0058	-0,0343	-0,0453	 0,0000	-0,0036	-0,0131	-0,0139	-0,0526	 0,0088	 0,0496	 0,0073	-0,0380	-0,0372	 0,0117	 0,0175	 0,1066	-0,0255	 0,1526	-0,0708	-0,0080	-0,0642
12.06.2026 10:29:39	-0,0839	-0,1234	-0,0139	 0,1263	-0,0394	-0,0620	 0,0000	 0,0394	 0,0314	-0,1000	-0,0723	 0,0029	-0,0365	-0,0431	 0,0000	-0,0044	-0,0095	-0,0168	-0,0518	 0,0095	 0,0489	 0,0066	-0,0423	-0,0372	 0,0095	-0,0613	 0,1110	-0,0241	 0,1453	-0,0650	-0,0146	-0,0708
12.06.2026 10:29:39	-0,0876	-0,1307	-0,0044	 0,0978	-0,0409	-0,0657	-0,1416	 0,0299	 0,0285	-0,1022	-0,0723	 0,0058	-0,0307	-0,0438	 0,0000	-0,0022	-0,1679	-0,0212	-0,0533	 0,0095	 0,0474	 0,0073	-0,0438	-0,0387	 0,0073	-0,1796	 0,1161	-0,0226	 0,1402	-0,0584	 0,0015	-0,0569
12.06.2026 10:29:39	-0,0912	-0,1343	-0,1226	 0,0650	-0,0533	-0,0686	-0,0109	 0,0562	 0,0591	-0,1197	-0,0810	 0,0080	-0,0307	-0,0431	 0,0000	-0,0073	-0,1387	-0,0299	-0,0555	 0,0058	 0,0423	 0,0000	-0,0518	-0,0431	 0,0000	-0,3000	 0,1117	 0,0109	 0,1402	-0,0577	 0,0073	-0,0358
12.06.2026 10:29:39	-0,0978	-0,1234	-0,0569	 0,0730	-0,0518	-0,0606	-0,0095	 0,0350	 0,0599	-0,1168	-0,0832	-0,0109	-0,0328	-0,0453	 0,0000	-0,0007	-0,0518	-0,0350	-0,0584	 0,0029	 0,0416	-0,0007	-0,0569	-0,0474	-0,0029	-0,4146	 0,1161	 0,0022	 0,1380	-0,0555	 0,0109	-0,0387
12.06.2026 10:29:39	-0,0876	-0,1234	 0,0307	 0,1131	-0,0577	-0,0555	-0,0562	 0,0000	-0,0051	-0,0978	-0,0803	 0,0000	-0,0190	-0,0431	 0,0000	 0,0000	-0,0241	-0,0321	-0,0540	 0,0080	 0,0474	 0,0036	-0,0489	-0,0423	 0,0015	-0,4051	 0,1168	-0,0161	 0,1445	-0,0562	 0,0117	-0,0358
12.06.2026 10:29:39	-0,0912	-0,1387	 0,0241	 0,1788	-0,0577	-0,0599	 0,0109	 0,0175	 0,0212	-0,0993	-0,0774	-0,0088	-0,0153	-0,0416	 0,0000	-0,0073	 0,0066	-0,0285	-0,0562	 0,0066	 0,0460	 0,0029	-0,0474	-0,0445	 0,0000	-0,3935	 0,1168	-0,0182	 0,1358	-0,0672	 0,0000	-0,0336
12.06.2026 10:29:39	-0,0971	-0,1365	 0,0927	 0,1737	-0,0416	-0,0540	-0,0095	 0,0197	 0,0190	-0,0927	-0,0810	-0,0139	-0,0336	-0,0445	 0,0000	-0,0088	-0,0058	-0,0285	-0,0584	 0,0051	 0,0460	 0,0029	-0,0496	-0,0453	 0,0000	-0,4927	 0,0985	-0,0168	 0,1314	-0,0599	-0,0168	-0,0124
12.06.2026 10:29:39	-0,1066	-0,1241	 0,0876	 0,2015	-0,0606	-0,0533	-0,0175	 0,0124	-0,0109	-0,0869	-0,0766	-0,0044	-0,0380	-0,0438	 0,0000	-0,0080	-0,0438	-0,0292	-0,0569	 0,0066	 0,0482	 0,0044	-0,0474	-0,0409	 0,0044	-0,5037	 0,0891	 0,0015	 0,1285	-0,0336	-0,0161	 0,0036
12.06.2026 10:29:39	-0,1161	-0,1183	 0,0416	 0,2022	-0,0715	-0,0591	-0,0204	 0,0226	-0,0248	-0,0832	-0,0737	-0,0109	-0,0263	-0,0416	 0,0000	-0,0073	-0,0803	-0,0285	-0,0562	 0,0066	 0,0474	 0,0044	-0,0489	-0,0423	 0,0029	-0,4489	 0,0810	 0,0044	 0,1168	-0,0226	-0,0307	-0,0073
12.06.2026 10:29:39	-0,1110	-0,1124	 0,0000	 0,1453	-0,0540	-0,0664	-0,0234	 0,0307	 0,0124	-0,0920	-0,0832	-0,0139	-0,0204	-0,0431	 0,0000	-0,0029	-0,0496	-0,0328	-0,0657	 0,0029	 0,0453	 0,0036	-0,0489	-0,0482	 0,0007	-0,4190	 0,0978	-0,0058	 0,1153	-0,0285	-0,0328	-0,0248
12.06.2026 10:29:39	-0,1336	-0,1299	-0,1219	 0,0766	-0,0723	-0,0854	-0,0182	 0,0467	 0,1234	-0,1117	-0,0934	-0,0263	-0,0153	-0,0482	 0,0000	 0,0044	-0,1978	-0,0467	-0,0810	-0,0066	 0,0380	-0,0036	-0,0657	-0,0606	-0,0095	-0,4416	 0,1146	 0,0044	 0,1124	-0,0438	-0,0270	-0,0277
12.06.2026 10:29:39	-0,1277	-0,1504	-0,1635	-0,0584	-0,0818	-0,0854	-0,0117	 0,0759	 0,1153	-0,1263	-0,1000	-0,0226	-0,0234	-0,0482	 0,0000	-0,0029	-0,1197	-0,0453	-0,0701	-0,0022	 0,0387	-0,0029	-0,0642	-0,0569	-0,0058	-0,5176	 0,0978	-0,0015	 0,1190	-0,0504	-0,0314	-0,0088
12.06.2026 10:29:39	-0,0934	-0,1394	-0,0657	 0,0620	-0,0591	-0,0818	-0,0372	 0,0263	 0,0496	-0,1073	-0,0905	-0,0015	-0,0460	-0,0460	 0,0000	-0,0015	 0,0511	-0,0299	-0,0555	 0,0088	 0,0496	 0,0102	-0,0438	-0,0438	 0,0095	-0,5256	 0,1000	-0,0029	 0,1277	-0,0416	-0,0197	-0,0036
12.06.2026 10:29:39	-0,1022	-0,1431	 0,0431	 0,1694	-0,0547	-0,0818	-0,0474	 0,0131	 0,0007	-0,0934	-0,0825	 0,0109	-0,0547	-0,0453	 0,0000	 0,0000	-0,0175	-0,0358	-0,0533	 0,0095	 0,0526	 0,0095	-0,0474	-0,0431	 0,0080	-0,5088	 0,0912	 0,0007	 0,1204	-0,0416	-0,0270	-0,0080
12.06.2026 10:29:39	-0,1007	-0,1416	 0,0672	 0,1854	-0,0606	-0,0693	-0,1285	 0,0380	-0,0489	-0,0839	-0,0854	 0,0029	-0,0482	-0,0438	 0,0000	-0,0051	-0,0197	-0,0299	-0,0518	 0,0124	 0,0547	 0,0109	-0,0445	-0,0401	 0,0109	-0,4248	 0,0737	-0,0175	 0,1037	-0,0409	-0,0350	-0,0139
12.06.2026 10:29:39	-0,0818	-0,1314	 0,0380	 0,2212	-0,0445	-0,0701	-0,0533	 0,0051	-0,0058	-0,0781	-0,0839	 0,0044	-0,0387	-0,0401	 0,0000	-0,0073	-0,0328	-0,0255	-0,0518	 0,0139	 0,0547	 0,0109	-0,0445	-0,0380	 0,0088	-0,3570	 0,0818	-0,0365	 0,0985	-0,0569	-0,0474	-0,0474
12.06.2026 10:29:39	-0,0766	-0,1350	 0,0423	 0,1715	-0,0380	-0,0679	 0,0971	 0,0080	-0,0197	-0,0949	-0,0978	 0,0102	-0,0277	-0,0365	 0,0000	-0,0080	-0,0190	-0,0343	-0,0511	 0,0139	 0,0540	 0,0088	-0,0474	-0,0380	 0,0066	-0,4132	 0,0715	-0,0175	 0,0825	-0,0431	-0,0650	-0,0307
12.06.2026 10:29:39	-0,0883	-0,1445	 0,0029	 0,1496	-0,0460	-0,0679	-0,0693	 0,0190	 0,0022	-0,1073	-0,1007	 0,0109	-0,0175	-0,0365	 0,0000	-0,0066	-0,0745	-0,0380	-0,0518	 0,0146	 0,0533	 0,0058	-0,0526	-0,0372	 0,0058	-0,3825	 0,0964	-0,0350	 0,1110	-0,0547	-0,0270	-0,0504
12.06.2026 10:29:39	-0,0942	-0,1591	-0,0153	 0,0679	-0,0467	-0,0715	-0,0555	 0,0350	 0,0956	-0,1277	-0,0971	 0,0109	-0,0285	-0,0387	 0,0000	-0,0088	-0,0876	-0,0445	-0,0526	 0,0109	 0,0482	-0,0015	-0,0628	-0,0416	-0,0022	-0,3446	 0,1664	-0,1212	 0,1986	-0,1343	 0,0387	-0,1438
12.06.2026 10:29:39	-0,0861	-0,1533	 0,0044	 0,1080	-0,0431	-0,0599	-0,0088	 0,0328	 0,0131	-0,1058	-0,0956	 0,0036	-0,0547	-0,0423	 0,0000	-0,0066	-0,0226	-0,0380	-0,0518	 0,0124	 0,0518	 0,0036	-0,0533	-0,0394	 0,0029	-0,3883	 0,1555	-0,1248	 0,2015	-0,1292	 0,0336	-0,1482
12.06.2026 10:29:39	-0,0920	-0,1445	-0,0117	 0,2088	-0,0409	-0,0577	-0,0489	 0,0073	-0,0197	-0,0942	-0,0883	 0,0117	-0,0314	-0,0387	 0,0000	-0,0080	-0,0358	-0,0328	-0,0467	 0,0168	 0,0547	 0,0080	-0,0474	-0,0350	 0,0080	-0,5030	 0,1175	-0,0934	 0,1533	-0,0993	 0,0044	-0,1234
12.06.2026 10:29:39	-0,0956	-0,1372	-0,0650	 0,1358	-0,0460	-0,0569	-0,0080	 0,0219	 0,0248	-0,1029	-0,0861	 0,0022	-0,0175	-0,0394	 0,0000	-0,0051	-0,0664	-0,0343	-0,0474	 0,0153	 0,0526	 0,0058	-0,0504	-0,0365	 0,0051	-0,6862	 0,1226	-0,0891	 0,1577	-0,1029	 0,0029	-0,1037
12.06.2026 10:29:39	-0,0869	-0,1307	 0,0015	 0,0599	-0,0504	-0,0562	-0,0489	 0,0336	 0,0277	-0,0956	-0,0861	 0,0029	-0,0190	-0,0409	 0,0000	-0,0051	-0,0467	-0,0358	-0,0489	 0,0139	 0,0526	 0,0066	-0,0482	-0,0380	 0,0066	-0,8672	 0,1139	-0,0664	 0,1686	-0,0985	-0,0095	-0,0810
12.06.2026 10:29:39	-0,0993	-0,1307	 0,0526	 0,1000	-0,0504	-0,0577	-0,0219	 0,0336	 0,0212	-0,1000	-0,0869	 0,0058	-0,0124	-0,0387	 0,0000	-0,0066	-0,0350	-0,0328	-0,0489	 0,0153	 0,0540	 0,0088	-0,0438	-0,0365	 0,0066	-1,0519	 0,1022	-0,0380	 0,1438	-0,0679	-0,0146	-0,0745
12.06.2026 10:29:39	-0,1110	-0,1212	 0,0343	 0,1496	-0,0467	-0,0606	-0,0255	 0,0336	 0,0212	-0,1007	-0,0861	-0,0015	-0,0307	-0,0423	 0,0000	-0,0022	-0,0365	-0,0270	-0,0496	 0,0153	 0,0547	 0,0095	-0,0409	-0,0358	 0,0088	-1,1176	 0,1088	-0,0270	 0,1555	-0,0562	-0,0088	-0,0745
12.06.2026 10:29:39	-0,1117	-0,1226	 0,0460	 0,1657	-0,0482	-0,0723	-0,0153	 0,0299	 0,0066	-0,1073	-0,0686	 0,0007	-0,0336	-0,0401	 0,0000	-0,0044	-0,0847	-0,0248	-0,0511	 0,0117	 0,0496	 0,0066	-0,0453	-0,0365	 0,0080	-1,1658	 0,0905	-0,0073	 0,1504	-0,0460	-0,0263	-0,0650
12.06.2026 10:29:39	-0,1015	-0,1292	-0,0365	 0,1635	-0,0540	-0,0672	 0,0022	 0,0307	 0,0226	-0,1088	-0,0708	 0,0015	-0,0321	-0,0365	 0,0000	-0,0066	-0,1226	-0,0234	-0,0489	 0,0131	 0,0496	 0,0066	-0,0474	-0,0336	 0,0088	-1,3950	 0,0708	 0,0285	 0,1292	-0,0102	-0,0314	-0,0168
12.06.2026 10:29:39	-0,0883	-0,1285	-0,0562	 0,1723	-0,0526	-0,0569	-0,0292	 0,0314	 0,0248	-0,1015	-0,0869	 0,0000	-0,0358	-0,0394	 0,0000	 0,0000	-0,0285	-0,0292	-0,0474	 0,0131	 0,0518	 0,0066	-0,0467	-0,0328	 0,0095	-1,4833	 0,0723	 0,0263	 0,1080	-0,0109	-0,0431	-0,0117
12.06.2026 10:29:39	-0,0883	-0,1204	-0,0642	 0,1788	-0,0533	-0,0460	-0,0212	 0,0248	 0,0036	-0,0964	-0,0759	-0,0015	-0,0255	-0,0387	 0,0000	 0,0000	-0,1562	-0,0241	-0,0467	 0,0139	 0,0526	 0,0073	-0,0482	-0,0307	 0,0117	-1,4629	 0,0920	 0,0168	 0,0876	-0,0226	-0,0431	-0,0226
12.06.2026 10:29:39	-0,0869	-0,1204	-0,0628	 0,0993	-0,0518	-0,0482	-0,0482	 0,0460	 0,0380	-0,0971	-0,0730	 0,0022	-0,0124	-0,0394	 0,0000	-0,0044	-0,1402	-0,0241	-0,0489	 0,0124	 0,0511	 0,0058	-0,0496	-0,0321	 0,0109	-1,4811	 0,1029	 0,0277	 0,0898	-0,0358	-0,0161	-0,0270
12.06.2026 10:29:39	-0,0759	-0,1277	 0,0372	 0,1190	-0,0416	-0,0569	-0,0066	 0,0336	 0,0277	-0,0942	-0,0774	 0,0000	-0,0058	-0,0394	 0,0000	-0,0029	 0,0314	-0,0277	-0,0504	 0,0102	 0,0504	 0,0051	-0,0482	-0,0358	 0,0080	-1,5198	 0,0905	 0,0307	 0,0847	-0,0474	-0,0058	-0,0496
12.06.2026 10:29:39	-0,0723	-0,1256	 0,1183	 0,1803	-0,0394	-0,0526	 0,0066	 0,0168	-0,0139	-0,0832	-0,0766	 0,0058	-0,0146	-0,0358	 0,0000	-0,0044	-0,0423	-0,0212	-0,0467	 0,0153	 0,0547	 0,0088	-0,0431	-0,0336	 0,0139	-1,6571	 0,1000	 0,0190	 0,1110	-0,0540	 0,0044	-0,0511
12.06.2026 10:29:39	-0,0861	-0,1234	 0,0759	 0,1555	-0,0445	-0,0577	-0,0314	 0,0292	-0,0204	-0,0876	-0,0759	-0,0044	-0,0299	-0,0394	 0,0000	-0,0015	-0,1080	-0,0255	-0,0569	 0,0095	 0,0504	 0,0073	-0,0467	-0,0409	 0,0117	-1,6724	 0,0993	 0,0226	 0,1219	-0,0474	 0,0044	-0,0409
12.06.2026 10:29:39	-0,0861	-0,1175	 0,0139	 0,1343	-0,0416	-0,0591	 0,0102	 0,0248	 0,0175	-0,1000	-0,0715	 0,0029	-0,0263	-0,0387	 0,0000	-0,0051	-0,0248	-0,0234	-0,0533	 0,0102	 0,0496	 0,0058	-0,0438	-0,0387	 0,0124	-1,6541	 0,1037	 0,0175	 0,1197	-0,0526	 0,0182	-0,0394
